"SPL Vertical"
"On-Axis"		"10°"		"-10°"		"20°"		"-20°"		"30°"		"-30°"		"40°"		"-40°"		"50°"		"-50°"		"60°"		"-60°"		"70°"		"-70°"		"80°"		"-80°"		"90°"		"-90°"		"100°"		"-100°"		"110°"		"-110°"		"120°"		"-120°"		"130°"		"-130°"		"140°"		"-140°"		"150°"		"-150°"		"160°"		"-160°"		"170°"		"-170°"		"180°"
"Frequency [Hz]"	"Sound Pessure Level [dB]  / [2.83V 1m] "	"Frequency [Hz]"	"Sound Pessure Level [dB]  / [2.83V 1m] "	"Frequency [Hz]"	"Sound Pessure Level [dB]  / [2.83V 1m] "	"Frequency [Hz]"	"Sound Pessure Level [dB]  / [2.83V 1m] "	"Frequency [Hz]"	"Sound Pessure Level [dB]  / [2.83V 1m] "	"Frequency [Hz]"	"Sound Pessure Level [dB]  / [2.83V 1m] "	"Frequency [Hz]"	"Sound Pessure Level [dB]  / [2.83V 1m] "	"Frequency [Hz]"	"Sound Pessure Level [dB]  / [2.83V 1m] "	"Frequency [Hz]"	"Sound Pessure Level [dB]  / [2.83V 1m] "	"Frequency [Hz]"	"Sound Pessure Level [dB]  / [2.83V 1m] "	"Frequency [Hz]"	"Sound Pessure Level [dB]  / [2.83V 1m] "	"Frequency [Hz]"	"Sound Pessure Level [dB]  / [2.83V 1m] "	"Frequency [Hz]"	"Sound Pessure Level [dB]  / [2.83V 1m] "	"Frequency [Hz]"	"Sound Pessure Level [dB]  / [2.83V 1m] "	"Frequency [Hz]"	"Sound Pessure Level [dB]  / [2.83V 1m] "	"Frequency [Hz]"	"Sound Pessure Level [dB]  / [2.83V 1m] "	"Frequency [Hz]"	"Sound Pessure Level [dB]  / [2.83V 1m] "	"Frequency [Hz]"	"Sound Pessure Level [dB]  / [2.83V 1m] "	"Frequency [Hz]"	"Sound Pessure Level [dB]  / [2.83V 1m] "	"Frequency [Hz]"	"Sound Pessure Level [dB]  / [2.83V 1m] "	"Frequency [Hz]"	"Sound Pessure Level [dB]  / [2.83V 1m] "	"Frequency [Hz]"	"Sound Pessure Level [dB]  / [2.83V 1m] "	"Frequency [Hz]"	"Sound Pessure Level [dB]  / [2.83V 1m] "	"Frequency [Hz]"	"Sound Pessure Level [dB]  / [2.83V 1m] "	"Frequency [Hz]"	"Sound Pessure Level [dB]  / [2.83V 1m] "	"Frequency [Hz]"	"Sound Pessure Level [dB]  / [2.83V 1m] "	"Frequency [Hz]"	"Sound Pessure Level [dB]  / [2.83V 1m] "	"Frequency [Hz]"	"Sound Pessure Level [dB]  / [2.83V 1m] "	"Frequency [Hz]"	"Sound Pessure Level [dB]  / [2.83V 1m] "	"Frequency [Hz]"	"Sound Pessure Level [dB]  / [2.83V 1m] "	"Frequency [Hz]"	"Sound Pessure Level [dB]  / [2.83V 1m] "	"Frequency [Hz]"	"Sound Pessure Level [dB]  / [2.83V 1m] "	"Frequency [Hz]"	"Sound Pessure Level [dB]  / [2.83V 1m] "	"Frequency [Hz]"	"Sound Pessure Level [dB]  / [2.83V 1m] "	"Frequency [Hz]"	"Sound Pessure Level [dB]  / [2.83V 1m] "	"Frequency [Hz]"	"Sound Pessure Level [dB]  / [2.83V 1m] "
20.1416	69.9911	20.1416	69.9877	20.1416	69.9986	20.1416	69.9881	20.1416	70.0099	20.1416	69.9919	20.1416	70.0241	20.1416	69.998	20.1416	70.0403	20.1416	70.0054	20.1416	70.0567	20.1416	70.0129	20.1416	70.0719	20.1416	70.0192	20.1416	70.0842	20.1416	70.0234	20.1416	70.0922	20.1416	70.0249	20.1416	70.095	20.1416	70.0234	20.1416	70.0922	20.1416	70.0192	20.1416	70.0842	20.1416	70.0129	20.1416	70.0719	20.1416	70.0054	20.1416	70.0567	20.1416	69.998	20.1416	70.0403	20.1416	69.9919	20.1416	70.0241	20.1416	69.9881	20.1416	70.0099	20.1416	69.9877	20.1416	69.9986	20.1416	69.9911
20.5078	70.3211	20.5078	70.3165	20.5078	70.3299	20.5078	70.3159	20.5078	70.3425	20.5078	70.3189	20.5078	70.3582	20.5078	70.3244	20.5078	70.3756	20.5078	70.3313	20.5078	70.3932	20.5078	70.3384	20.5078	70.4094	20.5078	70.3445	20.5078	70.4224	20.5078	70.3486	20.5078	70.4308	20.5078	70.3501	20.5078	70.4337	20.5078	70.3486	20.5078	70.4308	20.5078	70.3445	20.5078	70.4224	20.5078	70.3384	20.5078	70.4094	20.5078	70.3313	20.5078	70.3932	20.5078	70.3244	20.5078	70.3756	20.5078	70.3189	20.5078	70.3582	20.5078	70.3159	20.5078	70.3425	20.5078	70.3165	20.5078	70.3299	20.5078	70.3211
21.2402	70.8987	21.2402	70.8932	21.2402	70.9084	21.2402	70.8917	21.2402	70.9219	21.2402	70.8939	21.2402	70.9383	21.2402	70.8987	21.2402	70.9563	21.2402	70.9052	21.2402	70.9744	21.2402	70.9119	21.2402	70.9909	21.2402	70.9178	21.2402	71.0041	21.2402	70.9218	21.2402	71.0126	21.2402	70.9232	21.2402	71.0156	21.2402	70.9218	21.2402	71.0126	21.2402	70.9178	21.2402	71.0041	21.2402	70.9119	21.2402	70.9909	21.2402	70.9052	21.2402	70.9744	21.2402	70.8987	21.2402	70.9563	21.2402	70.8939	21.2402	70.9383	21.2402	70.8917	21.2402	70.9219	21.2402	70.8932	21.2402	70.9084	21.2402	70.8987
21.9727	71.4511	21.9727	71.4472	21.9727	71.4591	21.9727	71.4473	21.9727	71.4709	21.9727	71.4509	21.9727	71.4857	21.9727	71.457	21.9727	71.5023	21.9727	71.4644	21.9727	71.5192	21.9727	71.472	21.9727	71.5347	21.9727	71.4785	21.9727	71.5472	21.9727	71.4828	21.9727	71.5553	21.9727	71.4843	21.9727	71.5581	21.9727	71.4828	21.9727	71.5553	21.9727	71.4785	21.9727	71.5472	21.9727	71.472	21.9727	71.5347	21.9727	71.4644	21.9727	71.5192	21.9727	71.457	21.9727	71.5023	21.9727	71.4509	21.9727	71.4857	21.9727	71.4473	21.9727	71.4709	21.9727	71.4472	21.9727	71.4591	21.9727	71.4511
22.7051	71.8954	22.7051	71.8912	22.7051	71.9036	22.7051	71.891	22.7051	71.9154	22.7051	71.8941	22.7051	71.9302	22.7051	71.8998	22.7051	71.9467	22.7051	71.9069	22.7051	71.9634	22.7051	71.914	22.7051	71.9787	22.7051	71.9202	22.7051	71.991	22.7051	71.9243	22.7051	71.9989	22.7051	71.9258	22.7051	72.0017	22.7051	71.9243	22.7051	71.9989	22.7051	71.9202	22.7051	71.991	22.7051	71.914	22.7051	71.9787	22.7051	71.9069	22.7051	71.9634	22.7051	71.8998	22.7051	71.9467	22.7051	71.8941	22.7051	71.9302	22.7051	71.891	22.7051	71.9154	22.7051	71.8912	22.7051	71.9036	22.7051	71.8954
23.8037	72.6327	23.8037	72.6276	23.8037	72.6417	23.8037	72.6262	23.8037	72.6543	23.8037	72.6282	23.8037	72.6695	23.8037	72.6327	23.8037	72.6863	23.8037	72.6387	23.8037	72.7032	23.8037	72.645	23.8037	72.7186	23.8037	72.6504	23.8037	72.7309	23.8037	72.6541	23.8037	72.7389	23.8037	72.6553	23.8037	72.7416	23.8037	72.6541	23.8037	72.7389	23.8037	72.6504	23.8037	72.7309	23.8037	72.645	23.8037	72.7186	23.8037	72.6387	23.8037	72.7032	23.8037	72.6327	23.8037	72.6863	23.8037	72.6282	23.8037	72.6695	23.8037	72.6262	23.8037	72.6543	23.8037	72.6276	23.8037	72.6417	23.8037	72.6327
24.5361	73.0673	24.5361	73.062	24.5361	73.0764	24.5361	73.0605	24.5361	73.0888	24.5361	73.0621	24.5361	73.1039	24.5361	73.0663	24.5361	73.1205	24.5361	73.0719	24.5361	73.1371	24.5361	73.0779	24.5361	73.1522	24.5361	73.083	24.5361	73.1643	24.5361	73.0865	24.5361	73.1722	24.5361	73.0878	24.5361	73.1749	24.5361	73.0865	24.5361	73.1722	24.5361	73.083	24.5361	73.1643	24.5361	73.0779	24.5361	73.1522	24.5361	73.0719	24.5361	73.1371	24.5361	73.0663	24.5361	73.1205	24.5361	73.0621	24.5361	73.1039	24.5361	73.0605	24.5361	73.0888	24.5361	73.062	24.5361	73.0764	24.5361	73.0673
25.2686	73.4951	25.2686	73.4896	25.2686	73.5042	25.2686	73.4878	25.2686	73.5166	25.2686	73.4892	25.2686	73.5317	25.2686	73.493	25.2686	73.5481	25.2686	73.4983	25.2686	73.5646	25.2686	73.5039	25.2686	73.5795	25.2686	73.5088	25.2686	73.5915	25.2686	73.5122	25.2686	73.5992	25.2686	73.5134	25.2686	73.6019	25.2686	73.5122	25.2686	73.5992	25.2686	73.5088	25.2686	73.5915	25.2686	73.5039	25.2686	73.5795	25.2686	73.4983	25.2686	73.5646	25.2686	73.493	25.2686	73.5481	25.2686	73.4892	25.2686	73.5317	25.2686	73.4878	25.2686	73.5166	25.2686	73.4896	25.2686	73.5042	25.2686	73.4951
26.3672	74.1119	26.3672	74.1057	26.3672	74.1216	26.3672	74.103	26.3672	74.1346	26.3672	74.1036	26.3672	74.15	26.3672	74.1066	26.3672	74.1667	26.3672	74.111	26.3672	74.1834	26.3672	74.116	26.3672	74.1984	26.3672	74.1204	26.3672	74.2104	26.3672	74.1234	26.3672	74.2182	26.3672	74.1245	26.3672	74.2208	26.3672	74.1234	26.3672	74.2182	26.3672	74.1204	26.3672	74.2104	26.3672	74.116	26.3672	74.1984	26.3672	74.111	26.3672	74.1834	26.3672	74.1066	26.3672	74.1667	26.3672	74.1036	26.3672	74.15	26.3672	74.103	26.3672	74.1346	26.3672	74.1057	26.3672	74.1216	26.3672	74.1119
27.0996	74.5695	27.0996	74.563	27.0996	74.5795	27.0996	74.5599	27.0996	74.5926	27.0996	74.5599	27.0996	74.608	27.0996	74.5623	27.0996	74.6245	27.0996	74.5663	27.0996	74.641	27.0996	74.5708	27.0996	74.6559	27.0996	74.5748	27.0996	74.6677	27.0996	74.5776	27.0996	74.6753	27.0996	74.5786	27.0996	74.6779	27.0996	74.5776	27.0996	74.6753	27.0996	74.5748	27.0996	74.6677	27.0996	74.5708	27.0996	74.6559	27.0996	74.5663	27.0996	74.641	27.0996	74.5623	27.0996	74.6245	27.0996	74.5599	27.0996	74.608	27.0996	74.5599	27.0996	74.5926	27.0996	74.563	27.0996	74.5795	27.0996	74.5695
28.1982	75.2359	28.1982	75.2276	28.1982	75.2474	28.1982	75.2226	28.1982	75.2617	28.1982	75.2206	28.1982	75.2781	28.1982	75.221	28.1982	75.2953	28.1982	75.223	28.1982	75.3122	28.1982	75.2259	28.1982	75.3273	28.1982	75.2286	28.1982	75.3393	28.1982	75.2306	28.1982	75.347	28.1982	75.2313	28.1982	75.3497	28.1982	75.2306	28.1982	75.347	28.1982	75.2286	28.1982	75.3393	28.1982	75.2259	28.1982	75.3273	28.1982	75.223	28.1982	75.3122	28.1982	75.221	28.1982	75.2953	28.1982	75.2206	28.1982	75.2781	28.1982	75.2226	28.1982	75.2617	28.1982	75.2276	28.1982	75.2474	28.1982	75.2359
29.2969	75.7227	29.2969	75.7103	29.2969	75.7383	29.2969	75.701	29.2969	75.7563	29.2969	75.6949	29.2969	75.776	29.2969	75.6915	29.2969	75.7962	29.2969	75.6902	29.2969	75.8155	29.2969	75.6903	29.2969	75.8326	29.2969	75.691	29.2969	75.8459	29.2969	75.6917	29.2969	75.8544	29.2969	75.692	29.2969	75.8573	29.2969	75.6917	29.2969	75.8544	29.2969	75.691	29.2969	75.8459	29.2969	75.6903	29.2969	75.8326	29.2969	75.6902	29.2969	75.8155	29.2969	75.6915	29.2969	75.7962	29.2969	75.6949	29.2969	75.776	29.2969	75.701	29.2969	75.7563	29.2969	75.7103	29.2969	75.7383	29.2969	75.7227
30.0293	76.1084	30.0293	76.0984	30.0293	76.1215	30.0293	76.0915	30.0293	76.1371	30.0293	76.0875	30.0293	76.1546	30.0293	76.086	30.0293	76.1727	30.0293	76.0864	30.0293	76.1903	30.0293	76.0877	30.0293	76.2058	30.0293	76.0894	30.0293	76.2181	30.0293	76.0906	30.0293	76.226	30.0293	76.0911	30.0293	76.2287	30.0293	76.0906	30.0293	76.226	30.0293	76.0894	30.0293	76.2181	30.0293	76.0877	30.0293	76.2058	30.0293	76.0864	30.0293	76.1903	30.0293	76.086	30.0293	76.1727	30.0293	76.0875	30.0293	76.1546	30.0293	76.0915	30.0293	76.1371	30.0293	76.0984	30.0293	76.1215	30.0293	76.1084
31.1279	76.7457	31.1279	76.7343	31.1279	76.7599	31.1279	76.7259	31.1279	76.7763	31.1279	76.7202	31.1279	76.7944	31.1279	76.717	31.1279	76.8129	31.1279	76.7157	31.1279	76.8306	31.1279	76.7156	31.1279	76.8463	31.1279	76.7161	31.1279	76.8586	31.1279	76.7166	31.1279	76.8664	31.1279	76.7168	31.1279	76.8691	31.1279	76.7166	31.1279	76.8664	31.1279	76.7161	31.1279	76.8586	31.1279	76.7156	31.1279	76.8463	31.1279	76.7157	31.1279	76.8306	31.1279	76.717	31.1279	76.8129	31.1279	76.7202	31.1279	76.7944	31.1279	76.7259	31.1279	76.7763	31.1279	76.7343	31.1279	76.7599	31.1279	76.7457
32.2266	77.0271	32.2266	77.0188	32.2266	77.0379	32.2266	77.013	32.2266	77.0508	32.2266	77.0096	32.2266	77.0652	32.2266	77.0082	32.2266	77.0801	32.2266	77.0083	32.2266	77.0946	32.2266	77.0093	32.2266	77.1074	32.2266	77.0105	32.2266	77.1175	32.2266	77.0115	32.2266	77.124	32.2266	77.0118	32.2266	77.1263	32.2266	77.0115	32.2266	77.124	32.2266	77.0105	32.2266	77.1175	32.2266	77.0093	32.2266	77.1074	32.2266	77.0083	32.2266	77.0946	32.2266	77.0082	32.2266	77.0801	32.2266	77.0096	32.2266	77.0652	32.2266	77.013	32.2266	77.0508	32.2266	77.0188	32.2266	77.0379	32.2266	77.0271
33.3252	77.6883	33.3252	77.6752	33.3252	77.7034	33.3252	77.6645	33.3252	77.7201	33.3252	77.6561	33.3252	77.7376	33.3252	77.6499	33.3252	77.755	33.3252	77.6456	33.3252	77.7714	33.3252	77.6429	33.3252	77.7856	33.3252	77.6414	33.3252	77.7966	33.3252	77.6406	33.3252	77.8036	33.3252	77.6403	33.3252	77.806	33.3252	77.6406	33.3252	77.8036	33.3252	77.6414	33.3252	77.7966	33.3252	77.6429	33.3252	77.7856	33.3252	77.6456	33.3252	77.7714	33.3252	77.6499	33.3252	77.755	33.3252	77.6561	33.3252	77.7376	33.3252	77.6645	33.3252	77.7201	33.3252	77.6752	33.3252	77.7034	33.3252	77.6883
34.79	78.0202	34.79	77.9996	34.79	78.0423	34.79	77.9811	34.79	78.0653	34.79	77.9651	34.79	78.0884	34.79	77.9516	34.79	78.1105	34.79	77.9408	34.79	78.1307	34.79	77.9326	34.79	78.1478	34.79	77.9269	34.79	78.1609	34.79	77.9236	34.79	78.1691	34.79	77.9224	34.79	78.1719	34.79	77.9236	34.79	78.1691	34.79	77.9269	34.79	78.1609	34.79	77.9326	34.79	78.1478	34.79	77.9408	34.79	78.1307	34.79	77.9516	34.79	78.1105	34.79	77.9651	34.79	78.0884	34.79	77.9811	34.79	78.0653	34.79	77.9996	34.79	78.0423	34.79	78.0202
35.8887	77.7835	35.8887	77.774	35.8887	77.7948	35.8887	77.7667	35.8887	77.8076	35.8887	77.7614	35.8887	77.8213	35.8887	77.7579	35.8887	77.8351	35.8887	77.7561	35.8887	77.8481	35.8887	77.7553	35.8887	77.8596	35.8887	77.7552	35.8887	77.8685	35.8887	77.7553	35.8887	77.8741	35.8887	77.7554	35.8887	77.8761	35.8887	77.7553	35.8887	77.8741	35.8887	77.7552	35.8887	77.8685	35.8887	77.7553	35.8887	77.8596	35.8887	77.7561	35.8887	77.8481	35.8887	77.7579	35.8887	77.8351	35.8887	77.7614	35.8887	77.8213	35.8887	77.7667	35.8887	77.8076	35.8887	77.774	35.8887	77.7948	35.8887	77.7835
36.9873	78.1589	36.9873	78.1567	36.9873	78.163	36.9873	78.1565	36.9873	78.1688	36.9873	78.158	36.9873	78.1761	36.9873	78.1607	36.9873	78.1841	36.9873	78.1642	36.9873	78.1923	36.9873	78.1678	36.9873	78.1998	36.9873	78.1709	36.9873	78.2058	36.9873	78.173	36.9873	78.2097	36.9873	78.1738	36.9873	78.2111	36.9873	78.173	36.9873	78.2097	36.9873	78.1709	36.9873	78.2058	36.9873	78.1678	36.9873	78.1998	36.9873	78.1642	36.9873	78.1923	36.9873	78.1607	36.9873	78.1841	36.9873	78.158	36.9873	78.1761	36.9873	78.1565	36.9873	78.1688	36.9873	78.1567	36.9873	78.163	36.9873	78.1589
38.4521	78.5577	38.4521	78.5635	38.4521	78.5536	38.4521	78.5709	38.4521	78.5514	38.4521	78.5794	38.4521	78.5508	38.4521	78.5883	38.4521	78.5516	38.4521	78.5971	38.4521	78.5534	38.4521	78.605	38.4521	78.5556	38.4521	78.6113	38.4521	78.5577	38.4521	78.6153	38.4521	78.5592	38.4521	78.6167	38.4521	78.5597	38.4521	78.6153	38.4521	78.5592	38.4521	78.6113	38.4521	78.5577	38.4521	78.605	38.4521	78.5556	38.4521	78.5971	38.4521	78.5534	38.4521	78.5883	38.4521	78.5516	38.4521	78.5794	38.4521	78.5508	38.4521	78.5709	38.4521	78.5514	38.4521	78.5635	38.4521	78.5536	38.4521	78.5577
39.917	78.9962	39.917	79.0099	39.917	78.9849	39.917	79.0256	39.917	78.9764	39.917	79.0425	39.917	78.9705	39.917	79.0596	39.917	78.9672	39.917	79.0758	39.917	78.9658	39.917	79.0899	39.917	78.9658	39.917	79.1009	39.917	78.9664	39.917	79.1079	39.917	78.967	39.917	79.1103	39.917	78.9673	39.917	79.1079	39.917	78.967	39.917	79.1009	39.917	78.9664	39.917	79.0899	39.917	78.9658	39.917	79.0758	39.917	78.9658	39.917	79.0596	39.917	78.9672	39.917	79.0425	39.917	78.9705	39.917	79.0256	39.917	78.9764	39.917	79.0099	39.917	78.9849	39.917	78.9962
41.3818	80.3383	41.3818	80.3344	41.3818	80.3437	41.3818	80.3319	41.3818	80.3501	41.3818	80.3307	41.3818	80.3575	41.3818	80.3307	41.3818	80.3652	41.3818	80.3314	41.3818	80.3728	41.3818	80.3325	41.3818	80.3796	41.3818	80.3337	41.3818	80.385	41.3818	80.3345	41.3818	80.3885	41.3818	80.3349	41.3818	80.3897	41.3818	80.3345	41.3818	80.3885	41.3818	80.3337	41.3818	80.385	41.3818	80.3325	41.3818	80.3796	41.3818	80.3314	41.3818	80.3728	41.3818	80.3307	41.3818	80.3652	41.3818	80.3307	41.3818	80.3575	41.3818	80.3319	41.3818	80.3501	41.3818	80.3344	41.3818	80.3437	41.3818	80.3383
42.8467	80.8026	42.8467	80.7993	42.8467	80.8067	42.8467	80.7967	42.8467	80.8114	42.8467	80.795	42.8467	80.8166	42.8467	80.794	42.8467	80.8219	42.8467	80.7936	42.8467	80.827	42.8467	80.7936	42.8467	80.8316	42.8467	80.7938	42.8467	80.8352	42.8467	80.794	42.8467	80.8375	42.8467	80.7941	42.8467	80.8383	42.8467	80.794	42.8467	80.8375	42.8467	80.7938	42.8467	80.8352	42.8467	80.7936	42.8467	80.8316	42.8467	80.7936	42.8467	80.827	42.8467	80.794	42.8467	80.8219	42.8467	80.795	42.8467	80.8166	42.8467	80.7967	42.8467	80.8114	42.8467	80.7993	42.8467	80.8067	42.8467	80.8026
44.3115	81.1326	44.3115	81.1306	44.3115	81.1352	44.3115	81.1291	44.3115	81.1383	44.3115	81.1283	44.3115	81.1418	44.3115	81.128	44.3115	81.1454	44.3115	81.1281	44.3115	81.149	44.3115	81.1284	44.3115	81.1523	44.3115	81.1289	44.3115	81.1549	44.3115	81.1292	44.3115	81.1566	44.3115	81.1293	44.3115	81.1572	44.3115	81.1292	44.3115	81.1566	44.3115	81.1289	44.3115	81.1549	44.3115	81.1284	44.3115	81.1523	44.3115	81.1281	44.3115	81.149	44.3115	81.128	44.3115	81.1454	44.3115	81.1283	44.3115	81.1418	44.3115	81.1291	44.3115	81.1383	44.3115	81.1306	44.3115	81.1352	44.3115	81.1326
45.7764	81.5859	45.7764	81.5837	45.7764	81.5883	45.7764	81.5819	45.7764	81.5909	45.7764	81.5804	45.7764	81.5937	45.7764	81.5794	45.7764	81.5965	45.7764	81.5786	45.7764	81.5992	45.7764	81.5782	45.7764	81.6015	45.7764	81.5779	45.7764	81.6034	45.7764	81.5778	45.7764	81.6047	45.7764	81.5778	45.7764	81.6051	45.7764	81.5778	45.7764	81.6047	45.7764	81.5779	45.7764	81.6034	45.7764	81.5782	45.7764	81.6015	45.7764	81.5786	45.7764	81.5992	45.7764	81.5794	45.7764	81.5965	45.7764	81.5804	45.7764	81.5937	45.7764	81.5819	45.7764	81.5909	45.7764	81.5837	45.7764	81.5883	45.7764	81.5859
47.2412	81.9938	47.2412	81.992	47.2412	81.9956	47.2412	81.9901	47.2412	81.9971	47.2412	81.9881	47.2412	81.9985	47.2412	81.9863	47.2412	81.9996	47.2412	81.9848	47.2412	82.0007	47.2412	81.9835	47.2412	82.0016	47.2412	81.9826	47.2412	82.0023	47.2412	81.982	47.2412	82.0027	47.2412	81.9818	47.2412	82.0029	47.2412	81.982	47.2412	82.0027	47.2412	81.9826	47.2412	82.0023	47.2412	81.9835	47.2412	82.0016	47.2412	81.9848	47.2412	82.0007	47.2412	81.9863	47.2412	81.9996	47.2412	81.9881	47.2412	81.9985	47.2412	81.9901	47.2412	81.9971	47.2412	81.992	47.2412	81.9956	47.2412	81.9938
49.0723	82.5047	49.0723	82.5018	49.0723	82.507	49.0723	82.4986	49.0723	82.5088	49.0723	82.4952	49.0723	82.5101	49.0723	82.4918	49.0723	82.511	49.0723	82.4887	49.0723	82.5116	49.0723	82.486	49.0723	82.512	49.0723	82.484	49.0723	82.5122	49.0723	82.4828	49.0723	82.5123	49.0723	82.4824	49.0723	82.5124	49.0723	82.4828	49.0723	82.5123	49.0723	82.484	49.0723	82.5122	49.0723	82.486	49.0723	82.512	49.0723	82.4887	49.0723	82.5116	49.0723	82.4918	49.0723	82.511	49.0723	82.4952	49.0723	82.5101	49.0723	82.4986	49.0723	82.5088	49.0723	82.5018	49.0723	82.507	49.0723	82.5047
50.9033	82.9848	50.9033	82.9824	50.9033	82.9861	50.9033	82.9791	50.9033	82.9864	50.9033	82.9752	50.9033	82.9859	50.9033	82.9709	50.9033	82.9847	50.9033	82.9668	50.9033	82.9831	50.9033	82.9631	50.9033	82.9815	50.9033	82.9602	50.9033	82.9802	50.9033	82.9583	50.9033	82.9793	50.9033	82.9577	50.9033	82.979	50.9033	82.9583	50.9033	82.9793	50.9033	82.9602	50.9033	82.9802	50.9033	82.9631	50.9033	82.9815	50.9033	82.9668	50.9033	82.9831	50.9033	82.9709	50.9033	82.9847	50.9033	82.9752	50.9033	82.9859	50.9033	82.9791	50.9033	82.9864	50.9033	82.9824	50.9033	82.9861	50.9033	82.9848
52.7344	83.3886	52.7344	83.3862	52.7344	83.3895	52.7344	83.3824	52.7344	83.3889	52.7344	83.3776	52.7344	83.387	52.7344	83.3722	52.7344	83.3842	52.7344	83.3668	52.7344	83.3811	52.7344	83.3619	52.7344	83.378	52.7344	83.358	52.7344	83.3755	52.7344	83.3555	52.7344	83.3738	52.7344	83.3547	52.7344	83.3732	52.7344	83.3555	52.7344	83.3738	52.7344	83.358	52.7344	83.3755	52.7344	83.3619	52.7344	83.378	52.7344	83.3668	52.7344	83.3811	52.7344	83.3722	52.7344	83.3842	52.7344	83.3776	52.7344	83.387	52.7344	83.3824	52.7344	83.3889	52.7344	83.3862	52.7344	83.3895	52.7344	83.3886
54.5654	83.878	54.5654	83.8752	54.5654	83.879	54.5654	83.8708	54.5654	83.8783	54.5654	83.8653	54.5654	83.8761	54.5654	83.8591	54.5654	83.8728	54.5654	83.8528	54.5654	83.8691	54.5654	83.8472	54.5654	83.8655	54.5654	83.8427	54.5654	83.8626	54.5654	83.8398	54.5654	83.8606	54.5654	83.8388	54.5654	83.8599	54.5654	83.8398	54.5654	83.8606	54.5654	83.8427	54.5654	83.8626	54.5654	83.8472	54.5654	83.8655	54.5654	83.8528	54.5654	83.8691	54.5654	83.8591	54.5654	83.8728	54.5654	83.8653	54.5654	83.8761	54.5654	83.8708	54.5654	83.8783	54.5654	83.8752	54.5654	83.879	54.5654	83.878
56.3965	84.3203	56.3965	84.3175	56.3965	84.3208	56.3965	84.3126	56.3965	84.3192	56.3965	84.3062	56.3965	84.3158	56.3965	84.2989	56.3965	84.311	56.3965	84.2914	56.3965	84.3057	56.3965	84.2846	56.3965	84.3006	56.3965	84.2791	56.3965	84.2964	56.3965	84.2756	56.3965	84.2937	56.3965	84.2744	56.3965	84.2927	56.3965	84.2756	56.3965	84.2937	56.3965	84.2791	56.3965	84.2964	56.3965	84.2846	56.3965	84.3006	56.3965	84.2914	56.3965	84.3057	56.3965	84.2989	56.3965	84.311	56.3965	84.3062	56.3965	84.3158	56.3965	84.3126	56.3965	84.3192	56.3965	84.3175	56.3965	84.3208	56.3965	84.3203
58.2275	84.7111	58.2275	84.7078	58.2275	84.7115	58.2275	84.702	58.2275	84.7094	58.2275	84.6943	58.2275	84.7049	58.2275	84.6854	58.2275	84.6989	58.2275	84.6762	58.2275	84.6922	58.2275	84.6679	58.2275	84.6858	58.2275	84.6612	58.2275	84.6805	58.2275	84.6569	58.2275	84.677	58.2275	84.6554	58.2275	84.6758	58.2275	84.6569	58.2275	84.677	58.2275	84.6612	58.2275	84.6805	58.2275	84.6679	58.2275	84.6858	58.2275	84.6762	58.2275	84.6922	58.2275	84.6854	58.2275	84.6989	58.2275	84.6943	58.2275	84.7049	58.2275	84.702	58.2275	84.7094	58.2275	84.7078	58.2275	84.7115	58.2275	84.7111
60.4248	85.1558	60.4248	85.1518	60.4248	85.1564	60.4248	85.1447	60.4248	85.1539	60.4248	85.1353	60.4248	85.1485	60.4248	85.1245	60.4248	85.1413	60.4248	85.1135	60.4248	85.1332	60.4248	85.1034	60.4248	85.1254	60.4248	85.0953	60.4248	85.119	60.4248	85.09	60.4248	85.1147	60.4248	85.0882	60.4248	85.1133	60.4248	85.09	60.4248	85.1147	60.4248	85.0953	60.4248	85.119	60.4248	85.1034	60.4248	85.1254	60.4248	85.1135	60.4248	85.1332	60.4248	85.1245	60.4248	85.1413	60.4248	85.1353	60.4248	85.1485	60.4248	85.1447	60.4248	85.1539	60.4248	85.1518	60.4248	85.1564	60.4248	85.1558
62.6221	85.5866	62.6221	85.5821	62.6221	85.5871	62.6221	85.574	62.6221	85.5836	62.6221	85.563	62.6221	85.577	62.6221	85.5504	62.6221	85.5681	62.6221	85.5374	62.6221	85.5581	62.6221	85.5254	62.6221	85.5486	62.6221	85.5158	62.6221	85.5407	62.6221	85.5096	62.6221	85.5355	62.6221	85.5075	62.6221	85.5336	62.6221	85.5096	62.6221	85.5355	62.6221	85.5158	62.6221	85.5407	62.6221	85.5254	62.6221	85.5486	62.6221	85.5374	62.6221	85.5581	62.6221	85.5504	62.6221	85.5681	62.6221	85.563	62.6221	85.577	62.6221	85.574	62.6221	85.5836	62.6221	85.5821	62.6221	85.5871	62.6221	85.5866
64.8193	85.9261	64.8193	85.9231	64.8193	85.9243	64.8193	85.9157	64.8193	85.9181	64.8193	85.9048	64.8193	85.9081	64.8193	85.8917	64.8193	85.8956	64.8193	85.8779	64.8193	85.8822	64.8193	85.865	64.8193	85.8695	64.8193	85.8546	64.8193	85.8591	64.8193	85.8479	64.8193	85.8523	64.8193	85.8455	64.8193	85.8499	64.8193	85.8479	64.8193	85.8523	64.8193	85.8546	64.8193	85.8591	64.8193	85.865	64.8193	85.8695	64.8193	85.8779	64.8193	85.8822	64.8193	85.8917	64.8193	85.8956	64.8193	85.9048	64.8193	85.9081	64.8193	85.9157	64.8193	85.9181	64.8193	85.9231	64.8193	85.9243	64.8193	85.9261
67.0166	86.2008	67.0166	86.1973	67.0166	86.1991	67.0166	86.189	67.0166	86.1923	67.0166	86.1768	67.0166	86.1815	67.0166	86.1622	67.0166	86.1678	67.0166	86.1468	67.0166	86.153	67.0166	86.1325	67.0166	86.1391	67.0166	86.121	67.0166	86.1276	67.0166	86.1135	67.0166	86.1201	67.0166	86.1109	67.0166	86.1175	67.0166	86.1135	67.0166	86.1201	67.0166	86.121	67.0166	86.1276	67.0166	86.1325	67.0166	86.1391	67.0166	86.1468	67.0166	86.153	67.0166	86.1622	67.0166	86.1678	67.0166	86.1768	67.0166	86.1815	67.0166	86.189	67.0166	86.1923	67.0166	86.1973	67.0166	86.1991	67.0166	86.2008
69.2139	86.5142	69.2139	86.5074	69.2139	86.5152	69.2139	86.4953	69.2139	86.5105	69.2139	86.4791	69.2139	86.5011	69.2139	86.4605	69.2139	86.4883	69.2139	86.4413	69.2139	86.474	69.2139	86.4237	69.2139	86.4602	69.2139	86.4095	69.2139	86.4487	69.2139	86.4004	69.2139	86.4411	69.2139	86.3972	69.2139	86.4385	69.2139	86.4004	69.2139	86.4411	69.2139	86.4095	69.2139	86.4487	69.2139	86.4237	69.2139	86.4602	69.2139	86.4413	69.2139	86.474	69.2139	86.4605	69.2139	86.4883	69.2139	86.4791	69.2139	86.5011	69.2139	86.4953	69.2139	86.5105	69.2139	86.5074	69.2139	86.5152	69.2139	86.5142
71.7773	86.8675	71.7773	86.8591	71.7773	86.8692	71.7773	86.8447	71.7773	86.8644	71.7773	86.8257	71.7773	86.8541	71.7773	86.8038	71.7773	86.8398	71.7773	86.7814	71.7773	86.8238	71.7773	86.7609	71.7773	86.8081	71.7773	86.7445	71.7773	86.7951	71.7773	86.7338	71.7773	86.7865	71.7773	86.7302	71.7773	86.7835	71.7773	86.7338	71.7773	86.7865	71.7773	86.7445	71.7773	86.7951	71.7773	86.7609	71.7773	86.8081	71.7773	86.7814	71.7773	86.8238	71.7773	86.8038	71.7773	86.8398	71.7773	86.8257	71.7773	86.8541	71.7773	86.8447	71.7773	86.8644	71.7773	86.8591	71.7773	86.8692	71.7773	86.8675
74.3408	87.1816	74.3408	87.1722	74.3408	87.1835	74.3408	87.1559	74.3408	87.1779	74.3408	87.1343	74.3408	87.1661	74.3408	87.1094	74.3408	87.1497	74.3408	87.084	74.3408	87.1313	74.3408	87.0606	74.3408	87.1134	74.3408	87.0419	74.3408	87.0984	74.3408	87.0297	74.3408	87.0886	74.3408	87.0256	74.3408	87.0851	74.3408	87.0297	74.3408	87.0886	74.3408	87.0419	74.3408	87.0984	74.3408	87.0606	74.3408	87.1134	74.3408	87.084	74.3408	87.1313	74.3408	87.1094	74.3408	87.1497	74.3408	87.1343	74.3408	87.1661	74.3408	87.1559	74.3408	87.1779	74.3408	87.1722	74.3408	87.1835	74.3408	87.1816
76.9043	87.4734	76.9043	87.4648	76.9043	87.4734	76.9043	87.4484	76.9043	87.4651	76.9043	87.4258	76.9043	87.4498	76.9043	87.3994	76.9043	87.4296	76.9043	87.3721	76.9043	87.4072	76.9043	87.3469	76.9043	87.3856	76.9043	87.3265	76.9043	87.3678	76.9043	87.3133	76.9043	87.356	76.9043	87.3088	76.9043	87.3519	76.9043	87.3133	76.9043	87.356	76.9043	87.3265	76.9043	87.3678	76.9043	87.3469	76.9043	87.3856	76.9043	87.3721	76.9043	87.4072	76.9043	87.3994	76.9043	87.4296	76.9043	87.4258	76.9043	87.4498	76.9043	87.4484	76.9043	87.4651	76.9043	87.4648	76.9043	87.4734	76.9043	87.4734
79.834	87.7485	79.834	87.7405	79.834	87.7467	79.834	87.7236	79.834	87.7357	79.834	87.6996	79.834	87.7168	79.834	87.6712	79.834	87.6926	79.834	87.6416	79.834	87.666	79.834	87.614	79.834	87.6406	79.834	87.5918	79.834	87.6196	79.834	87.5773	79.834	87.6059	79.834	87.5723	79.834	87.6011	79.834	87.5773	79.834	87.6059	79.834	87.5918	79.834	87.6196	79.834	87.614	79.834	87.6406	79.834	87.6416	79.834	87.666	79.834	87.6712	79.834	87.6926	79.834	87.6996	79.834	87.7168	79.834	87.7236	79.834	87.7357	79.834	87.7405	79.834	87.7467	79.834	87.7485
82.3975	87.9545	82.3975	87.9485	82.3975	87.9498	82.3975	87.9324	82.3975	87.9347	82.3975	87.9081	82.3975	87.911	82.3975	87.8787	82.3975	87.8815	82.3975	87.8476	82.3975	87.8498	82.3975	87.8184	82.3975	87.8197	82.3975	87.7947	82.3975	87.795	82.3975	87.7792	82.3975	87.7788	82.3975	87.7738	82.3975	87.7731	82.3975	87.7792	82.3975	87.7788	82.3975	87.7947	82.3975	87.795	82.3975	87.8184	82.3975	87.8197	82.3975	87.8476	82.3975	87.8498	82.3975	87.8787	82.3975	87.8815	82.3975	87.9081	82.3975	87.911	82.3975	87.9324	82.3975	87.9347	82.3975	87.9485	82.3975	87.9498	82.3975	87.9545
85.3271	87.9953	85.3271	87.985	85.3271	87.9934	85.3271	87.9636	85.3271	87.9799	85.3271	87.9332	85.3271	87.9567	85.3271	87.8972	85.3271	87.9267	85.3271	87.8596	85.3271	87.8938	85.3271	87.8247	85.3271	87.8623	85.3271	87.7963	85.3271	87.8363	85.3271	87.7779	85.3271	87.8192	85.3271	87.7715	85.3271	87.8132	85.3271	87.7779	85.3271	87.8192	85.3271	87.7963	85.3271	87.8363	85.3271	87.8247	85.3271	87.8623	85.3271	87.8596	85.3271	87.8938	85.3271	87.8972	85.3271	87.9267	85.3271	87.9332	85.3271	87.9567	85.3271	87.9636	85.3271	87.9799	85.3271	87.985	85.3271	87.9934	85.3271	87.9953
88.2568	88.2355	88.2568	88.2203	88.2568	88.2373	88.2568	88.193	88.2568	88.2262	88.2568	88.1561	88.2568	88.2041	88.2568	88.1134	88.2568	88.1743	88.2568	88.0692	88.2568	88.141	88.2568	88.0285	88.2568	88.1086	88.2568	87.9956	88.2568	88.0816	88.2568	87.9743	88.2568	88.0638	88.2568	87.9669	88.2568	88.0576	88.2568	87.9743	88.2568	88.0638	88.2568	87.9956	88.2568	88.0816	88.2568	88.0285	88.2568	88.1086	88.2568	88.0692	88.2568	88.141	88.2568	88.1134	88.2568	88.1743	88.2568	88.1561	88.2568	88.2041	88.2568	88.193	88.2568	88.2262	88.2568	88.2203	88.2568	88.2373	88.2568	88.2355
91.5527	88.1436	91.5527	88.1257	91.5527	88.1467	91.5527	88.0942	91.5527	88.1354	91.5527	88.0521	91.5527	88.1117	91.5527	88.0035	91.5527	88.0793	91.5527	87.9535	91.5527	88.0427	91.5527	87.9074	91.5527	88.0071	91.5527	87.8703	91.5527	87.9774	91.5527	87.8462	91.5527	87.9577	91.5527	87.8379	91.5527	87.9508	91.5527	87.8462	91.5527	87.9577	91.5527	87.8703	91.5527	87.9774	91.5527	87.9074	91.5527	88.0071	91.5527	87.9535	91.5527	88.0427	91.5527	88.0035	91.5527	88.0793	91.5527	88.0521	91.5527	88.1117	91.5527	88.0942	91.5527	88.1354	91.5527	88.1257	91.5527	88.1467	91.5527	88.1436
94.8486	88.1306	94.8486	88.1126	94.8486	88.1325	94.8486	88.0798	94.8486	88.1186	94.8486	88.0353	94.8486	88.0914	94.8486	87.9837	94.8486	88.0548	94.8486	87.9304	94.8486	88.0137	94.8486	87.8812	94.8486	87.9738	94.8486	87.8415	94.8486	87.9406	94.8486	87.8158	94.8486	87.9186	94.8486	87.8068	94.8486	87.9109	94.8486	87.8158	94.8486	87.9186	94.8486	87.8415	94.8486	87.9406	94.8486	87.8812	94.8486	87.9738	94.8486	87.9304	94.8486	88.0137	94.8486	87.9837	94.8486	88.0548	94.8486	88.0353	94.8486	88.0914	94.8486	88.0798	94.8486	88.1186	94.8486	88.1126	94.8486	88.1325	94.8486	88.1306
98.1445	88.2593	98.1445	88.2425	98.1445	88.2585	98.1445	88.2098	98.1445	88.2409	98.1445	88.1644	98.1445	88.2089	98.1445	88.111	98.1445	88.1669	98.1445	88.0556	98.1445	88.1203	98.1445	88.0042	98.1445	88.0753	98.1445	87.9627	98.1445	88.038	98.1445	87.9357	98.1445	88.0134	98.1445	87.9263	98.1445	88.0048	98.1445	87.9357	98.1445	88.0134	98.1445	87.9627	98.1445	88.038	98.1445	88.0042	98.1445	88.0753	98.1445	88.0556	98.1445	88.1203	98.1445	88.111	98.1445	88.1669	98.1445	88.1644	98.1445	88.2089	98.1445	88.2098	98.1445	88.2409	98.1445	88.2425	98.1445	88.2585	98.1445	88.2593
101.44	88.347	101.44	88.3311	101.44	88.3438	101.44	88.2977	101.44	88.3222	101.44	88.2503	101.44	88.285	101.44	88.194	101.44	88.237	101.44	88.1352	101.44	88.1842	101.44	88.0804	101.44	88.1335	101.44	88.0361	101.44	88.0914	101.44	88.0072	101.44	88.0637	101.44	87.9972	101.44	88.054	101.44	88.0072	101.44	88.0637	101.44	88.0361	101.44	88.0914	101.44	88.0804	101.44	88.1335	101.44	88.1352	101.44	88.1842	101.44	88.194	101.44	88.237	101.44	88.2503	101.44	88.285	101.44	88.2977	101.44	88.3222	101.44	88.3311	101.44	88.3438	101.44	88.347
105.103	88.3366	105.103	88.3218	105.103	88.3305	105.103	88.2876	105.103	88.3041	105.103	88.2379	105.103	88.2607	105.103	88.1783	105.103	88.2056	105.103	88.1156	105.103	88.1454	105.103	88.057	105.103	88.0878	105.103	88.0094	105.103	88.0401	105.103	87.9784	105.103	88.0088	105.103	87.9677	105.103	87.9978	105.103	87.9784	105.103	88.0088	105.103	88.0094	105.103	88.0401	105.103	88.057	105.103	88.0878	105.103	88.1156	105.103	88.1454	105.103	88.1783	105.103	88.2056	105.103	88.2379	105.103	88.2607	105.103	88.2876	105.103	88.3041	105.103	88.3218	105.103	88.3305	105.103	88.3366
108.765	88.3079	108.765	88.2936	108.765	88.2993	108.765	88.2583	108.765	88.2689	108.765	88.2061	108.765	88.22	108.765	88.1429	108.765	88.1585	108.765	88.0761	108.765	88.0916	108.765	88.0136	108.765	88.0278	108.765	87.9627	108.765	87.9752	108.765	87.9295	108.765	87.9405	108.765	87.9179	108.765	87.9285	108.765	87.9295	108.765	87.9405	108.765	87.9627	108.765	87.9752	108.765	88.0136	108.765	88.0278	108.765	88.0761	108.765	88.0916	108.765	88.1429	108.765	88.1585	108.765	88.2061	108.765	88.22	108.765	88.2583	108.765	88.2689	108.765	88.2936	108.765	88.2993	108.765	88.3079
112.793	88.3243	112.793	88.305	112.793	88.3184	112.793	88.2623	112.793	88.2881	112.793	88.201	112.793	88.2373	112.793	88.1277	112.793	88.1721	112.793	88.0507	112.793	88.1007	112.793	87.9789	112.793	88.0322	112.793	87.9204	112.793	87.9755	112.793	87.8824	112.793	87.938	112.793	87.8691	112.793	87.925	112.793	87.8824	112.793	87.938	112.793	87.9204	112.793	87.9755	112.793	87.9789	112.793	88.0322	112.793	88.0507	112.793	88.1007	112.793	88.1277	112.793	88.1721	112.793	88.201	112.793	88.2373	112.793	88.2623	112.793	88.2881	112.793	88.305	112.793	88.3184	112.793	88.3243
116.455	88.4506	116.455	88.4309	116.455	88.443	116.455	88.386	116.455	88.4092	116.455	88.3206	116.455	88.3533	116.455	88.2422	116.455	88.2821	116.455	88.1594	116.455	88.2044	116.455	88.0819	116.455	88.13	116.455	88.0188	116.455	88.0684	116.455	87.9776	116.455	88.0278	116.455	87.9633	116.455	88.0137	116.455	87.9776	116.455	88.0278	116.455	88.0188	116.455	88.0684	116.455	88.0819	116.455	88.13	116.455	88.1594	116.455	88.2044	116.455	88.2422	116.455	88.2821	116.455	88.3206	116.455	88.3533	116.455	88.386	116.455	88.4092	116.455	88.4309	116.455	88.443	116.455	88.4506
120.85	88.3611	120.85	88.3428	120.85	88.3497	120.85	88.2969	120.85	88.3099	120.85	88.2288	120.85	88.2461	120.85	88.1462	120.85	88.1658	120.85	88.0585	120.85	88.0786	120.85	87.9762	120.85	87.9952	120.85	87.909	120.85	87.9264	120.85	87.8651	120.85	87.8811	120.85	87.8499	120.85	87.8652	120.85	87.8651	120.85	87.8811	120.85	87.909	120.85	87.9264	120.85	87.9762	120.85	87.9952	120.85	88.0585	120.85	88.0786	120.85	88.1462	120.85	88.1658	120.85	88.2288	120.85	88.2461	120.85	88.2969	120.85	88.3099	120.85	88.3428	120.85	88.3497	120.85	88.3611
124.878	88.2605	124.878	88.2411	124.878	88.2478	124.878	88.1919	124.878	88.2043	124.878	88.1186	124.878	88.1348	124.878	88.0295	124.878	88.0474	124.878	87.9349	124.878	87.9525	124.878	87.8461	124.878	87.8618	124.878	87.7735	124.878	87.7868	124.878	87.7261	124.878	87.7374	124.878	87.7096	124.878	87.7201	124.878	87.7261	124.878	87.7374	124.878	87.7735	124.878	87.7868	124.878	87.8461	124.878	87.8618	124.878	87.9349	124.878	87.9525	124.878	88.0295	124.878	88.0474	124.878	88.1186	124.878	88.1348	124.878	88.1919	124.878	88.2043	124.878	88.2411	124.878	88.2478	124.878	88.2605
129.272	88.1206	129.272	88.101	129.272	88.1051	129.272	88.0488	129.272	88.0559	129.272	87.97	129.272	87.9784	129.272	87.8738	129.272	87.8814	129.272	87.7713	129.272	87.7762	129.272	87.6748	129.272	87.6758	129.272	87.5959	129.272	87.5928	129.272	87.5443	129.272	87.5381	129.272	87.5263	129.272	87.519	129.272	87.5443	129.272	87.5381	129.272	87.5959	129.272	87.5928	129.272	87.6748	129.272	87.6758	129.272	87.7713	129.272	87.7762	129.272	87.8738	129.272	87.8814	129.272	87.97	129.272	87.9784	129.272	88.0488	129.272	88.0559	129.272	88.101	129.272	88.1051	129.272	88.1206
134.033	87.9451	134.033	87.9244	134.033	87.9278	134.033	87.8682	134.033	87.8739	134.033	87.7831	134.033	87.7893	134.033	87.6791	134.033	87.6833	134.033	87.5682	134.033	87.5685	134.033	87.4636	134.033	87.4588	134.033	87.3781	134.033	87.3681	134.033	87.3221	134.033	87.3084	134.033	87.3026	134.033	87.2875	134.033	87.3221	134.033	87.3084	134.033	87.3781	134.033	87.3681	134.033	87.4636	134.033	87.4588	134.033	87.5682	134.033	87.5685	134.033	87.6791	134.033	87.6833	134.033	87.7831	134.033	87.7893	134.033	87.8682	134.033	87.8739	134.033	87.9244	134.033	87.9278	134.033	87.9451
138.794	87.7859	138.794	87.7645	138.794	87.7657	138.794	87.7044	138.794	87.7058	138.794	87.6127	138.794	87.6122	138.794	87.5002	138.794	87.4955	138.794	87.38	138.794	87.369	138.794	87.2664	138.794	87.2483	138.794	87.1734	138.794	87.1485	138.794	87.1125	138.794	87.0827	138.794	87.0912	138.794	87.0597	138.794	87.1125	138.794	87.0827	138.794	87.1734	138.794	87.1485	138.794	87.2664	138.794	87.2483	138.794	87.38	138.794	87.369	138.794	87.5002	138.794	87.4955	138.794	87.6127	138.794	87.6122	138.794	87.7044	138.794	87.7058	138.794	87.7645	138.794	87.7657	138.794	87.7859
143.555	87.5899	143.555	87.5703	143.555	87.5646	143.555	87.5086	143.555	87.4961	143.555	87.4124	143.555	87.3914	143.555	87.2934	143.555	87.2616	143.555	87.1655	143.555	87.1216	143.555	87.0444	143.555	86.988	143.555	86.945	143.555	86.8778	143.555	86.8797	143.555	86.8051	143.555	86.857	143.555	86.7797	143.555	86.8797	143.555	86.8051	143.555	86.945	143.555	86.8778	143.555	87.0444	143.555	86.988	143.555	87.1655	143.555	87.1216	143.555	87.2934	143.555	87.2616	143.555	87.4124	143.555	87.3914	143.555	87.5086	143.555	87.4961	143.555	87.5703	143.555	87.5646	143.555	87.5899
148.682	87.4617	148.682	87.448	148.682	87.4267	148.682	87.3889	148.682	87.3454	148.682	87.2923	148.682	87.2251	148.682	87.1704	148.682	87.0783	148.682	87.0382	148.682	86.921	148.682	86.9123	148.682	86.7716	148.682	86.8086	148.682	86.6485	148.682	86.7404	148.682	86.5675	148.682	86.7166	148.682	86.5392	148.682	86.7404	148.682	86.5675	148.682	86.8086	148.682	86.6485	148.682	86.9123	148.682	86.7716	148.682	87.0382	148.682	86.921	148.682	87.1704	148.682	87.0783	148.682	87.2923	148.682	87.2251	148.682	87.3889	148.682	87.3454	148.682	87.448	148.682	87.4267	148.682	87.4617
153.809	87.273	153.809	87.2623	153.809	87.2321	153.809	87.2032	153.809	87.1421	153.809	87.1039	153.809	87.011	153.809	86.9774	153.809	86.852	153.809	86.8396	153.809	86.6824	153.809	86.7079	153.809	86.5218	153.809	86.5993	153.809	86.3896	153.809	86.5278	153.809	86.3027	153.809	86.5028	153.809	86.2724	153.809	86.5278	153.809	86.3027	153.809	86.5993	153.809	86.3896	153.809	86.7079	153.809	86.5218	153.809	86.8396	153.809	86.6824	153.809	86.9774	153.809	86.852	153.809	87.1039	153.809	87.011	153.809	87.2032	153.809	87.1421	153.809	87.2623	153.809	87.2321	153.809	87.273
159.302	87.1083	159.302	87.1068	159.302	87.0576	159.302	87.056	159.302	86.9571	159.302	86.9645	159.302	86.8153	159.302	86.845	159.302	86.6458	159.302	86.7135	159.302	86.4665	159.302	86.5872	159.302	86.2976	159.302	86.4828	159.302	86.159	159.302	86.414	159.302	86.0681	159.302	86.39	159.302	86.0364	159.302	86.414	159.302	86.0681	159.302	86.4828	159.302	86.159	159.302	86.5872	159.302	86.2976	159.302	86.7135	159.302	86.4665	159.302	86.845	159.302	86.6458	159.302	86.9645	159.302	86.8153	159.302	87.056	159.302	86.9571	159.302	87.1068	159.302	87.0576	159.302	87.1083
164.795	87.5807	164.795	87.5535	164.795	87.5583	164.795	87.4797	164.795	87.4888	164.795	87.3676	164.795	87.38	164.795	87.23	164.795	87.2446	164.795	87.0828	164.795	87.0986	164.795	86.9436	164.795	86.96	164.795	86.8294	164.795	86.8459	164.795	86.7545	164.795	86.771	164.795	86.7284	164.795	86.7449	164.795	86.7545	164.795	86.771	164.795	86.8294	164.795	86.8459	164.795	86.9436	164.795	86.96	164.795	87.0828	164.795	87.0986	164.795	87.23	164.795	87.2446	164.795	87.3676	164.795	87.38	164.795	87.4797	164.795	87.4888	164.795	87.5535	164.795	87.5583	164.795	87.5807
170.654	88.4098	170.654	88.3475	170.654	88.4201	170.654	88.2375	170.654	88.3797	170.654	88.0895	170.654	88.2958	170.654	87.9178	170.654	88.1802	170.654	87.7398	170.654	88.049	170.654	87.5748	170.654	87.9202	170.654	87.441	170.654	87.8122	170.654	87.3538	170.654	87.7403	170.654	87.3236	170.654	87.7151	170.654	87.3538	170.654	87.7403	170.654	87.441	170.654	87.8122	170.654	87.5748	170.654	87.9202	170.654	87.7398	170.654	88.049	170.654	87.9178	170.654	88.1802	170.654	88.0895	170.654	88.2958	170.654	88.2375	170.654	88.3797	170.654	88.3475	170.654	88.4201	170.654	88.4098
176.88	88.5576	176.88	88.5154	176.88	88.5411	176.88	88.4187	176.88	88.4677	176.88	88.278	176.88	88.3456	176.88	88.1084	176.88	88.1888	176.88	87.9288	176.88	88.016	176.88	87.7599	176.88	87.849	176.88	87.6218	176.88	87.7099	176.88	87.5313	176.88	87.6176	176.88	87.4999	176.88	87.5852	176.88	87.5313	176.88	87.6176	176.88	87.6218	176.88	87.7099	176.88	87.7599	176.88	87.849	176.88	87.9288	176.88	88.016	176.88	88.1084	176.88	88.1888	176.88	88.278	176.88	88.3456	176.88	88.4187	176.88	88.4677	176.88	88.5154	176.88	88.5411	176.88	88.5576
183.105	88.3463	183.105	88.3096	183.105	88.317	183.105	88.2117	183.105	88.2241	183.105	88.0635	183.105	88.0769	183.105	87.8818	183.105	87.8913	183.105	87.6873	183.105	87.6884	183.105	87.5032	183.105	87.4931	183.105	87.3518	183.105	87.3305	183.105	87.2523	183.105	87.2227	183.105	87.2176	183.105	87.185	183.105	87.2523	183.105	87.2227	183.105	87.3518	183.105	87.3305	183.105	87.5032	183.105	87.4931	183.105	87.6873	183.105	87.6884	183.105	87.8818	183.105	87.8913	183.105	88.0635	183.105	88.0769	183.105	88.2117	183.105	88.2241	183.105	88.3096	183.105	88.317	183.105	88.3463
189.331	87.9679	189.331	87.9224	189.331	87.9422	189.331	87.8109	189.331	87.8477	189.331	87.6452	189.331	87.6943	189.331	87.4434	189.331	87.4987	189.331	87.2281	189.331	87.2835	189.331	87.0242	189.331	87.0754	189.331	86.8567	189.331	86.9016	189.331	86.7466	189.331	86.7862	189.331	86.7082	189.331	86.7457	189.331	86.7466	189.331	86.7862	189.331	86.8567	189.331	86.9016	189.331	87.0242	189.331	87.0754	189.331	87.2281	189.331	87.2835	189.331	87.4434	189.331	87.4987	189.331	87.6452	189.331	87.6943	189.331	87.8109	189.331	87.8477	189.331	87.9224	189.331	87.9422	189.331	87.9679
196.289	87.5103	196.289	87.4635	196.289	87.4794	196.289	87.3448	196.289	87.3732	196.289	87.1673	196.289	87.2019	196.289	86.9505	196.289	86.9838	196.289	86.7188	196.289	86.7437	196.289	86.4993	196.289	86.5111	196.289	86.3189	196.289	86.3165	196.289	86.2002	196.289	86.1871	196.289	86.1588	196.289	86.1417	196.289	86.2002	196.289	86.1871	196.289	86.3189	196.289	86.3165	196.289	86.4993	196.289	86.5111	196.289	86.7188	196.289	86.7437	196.289	86.9505	196.289	86.9838	196.289	87.1673	196.289	87.2019	196.289	87.3448	196.289	87.3732	196.289	87.4635	196.289	87.4794	196.289	87.5103
202.881	87.4619	202.881	87.3682	202.881	87.4695	202.881	87.1957	202.881	87.3928	202.881	86.9598	202.881	87.2421	202.881	86.6832	202.881	87.0365	202.881	86.394	202.881	86.8024	202.881	86.1235	202.881	86.5711	202.881	85.9027	202.881	86.3754	202.881	85.7581	202.881	86.2443	202.881	85.7078	202.881	86.1982	202.881	85.7581	202.881	86.2443	202.881	85.9027	202.881	86.3754	202.881	86.1235	202.881	86.5711	202.881	86.394	202.881	86.8024	202.881	86.6832	202.881	87.0365	202.881	86.9598	202.881	87.2421	202.881	87.1957	202.881	87.3928	202.881	87.3682	202.881	87.4695	202.881	87.4619
210.205	87.6355	210.205	87.4823	210.205	87.6916	210.205	87.2402	210.205	87.6521	210.205	86.9266	210.205	87.5282	210.205	86.5677	210.205	87.3401	210.205	86.1968	210.205	87.1159	210.205	85.8517	210.205	86.8889	210.205	85.5704	210.205	86.6941	210.205	85.3862	210.205	86.5625	210.205	85.322	210.205	86.5161	210.205	85.3862	210.205	86.5625	210.205	85.5704	210.205	86.6941	210.205	85.8517	210.205	86.8889	210.205	86.1968	210.205	87.1159	210.205	86.5677	210.205	87.3401	210.205	86.9266	210.205	87.5282	210.205	87.2402	210.205	87.6521	210.205	87.4823	210.205	87.6916	210.205	87.6355
217.529	87.7387	217.529	87.6096	217.529	87.7616	217.529	87.3819	217.529	87.681	217.529	87.0735	217.529	87.5099	217.529	86.7114	217.529	87.271	217.529	86.331	217.529	86.9957	217.529	85.973	217.529	86.7217	217.529	85.6788	217.529	86.4885	217.529	85.4852	217.529	86.3317	217.529	85.4176	217.529	86.2764	217.529	85.4852	217.529	86.3317	217.529	85.6788	217.529	86.4885	217.529	85.973	217.529	86.7217	217.529	86.331	217.529	86.9957	217.529	86.7114	217.529	87.271	217.529	87.0735	217.529	87.5099	217.529	87.3819	217.529	87.681	217.529	87.6096	217.529	87.7616	217.529	87.7387
225.22	87.4907	225.22	87.3953	225.22	87.4736	225.22	87.1947	225.22	87.3473	225.22	86.9072	225.22	87.1258	225.22	86.5604	225.22	86.8341	225.22	86.1907	225.22	86.5065	225.22	85.8394	225.22	86.1846	225.22	85.5493	225.22	85.9124	225.22	85.3577	225.22	85.73	225.22	85.2908	225.22	85.6658	225.22	85.3577	225.22	85.73	225.22	85.5493	225.22	85.9124	225.22	85.8394	225.22	86.1846	225.22	86.1907	225.22	86.5065	225.22	86.5604	225.22	86.8341	225.22	86.9072	225.22	87.1258	225.22	87.1947	225.22	87.3473	225.22	87.3953	225.22	87.4736	225.22	87.4907
233.276	87.2927	233.276	87.2021	233.276	87.2621	233.276	86.9977	233.276	87.1141	233.276	86.6982	233.276	86.8643	233.276	86.3327	233.276	86.5392	233.276	85.9396	233.276	86.1761	233.276	85.5637	233.276	85.82	233.276	85.2515	233.276	85.5191	233.276	85.0446	233.276	85.3174	233.276	84.9721	233.276	85.2464	233.276	85.0446	233.276	85.3174	233.276	85.2515	233.276	85.5191	233.276	85.5637	233.276	85.82	233.276	85.9396	233.276	86.1761	233.276	86.3327	233.276	86.5392	233.276	86.6982	233.276	86.8643	233.276	86.9977	233.276	87.1141	233.276	87.2021	233.276	87.2621	233.276	87.2927
241.333	87.4452	241.333	87.3388	241.333	87.4221	241.333	87.1108	241.333	87.2737	241.333	86.7808	241.333	87.0161	241.333	86.3799	241.333	86.6775	241.333	85.9491	241.333	86.2971	241.333	85.537	241.333	85.9225	241.333	85.1944	241.333	85.6051	241.333	84.9672	241.333	85.3919	241.333	84.8876	241.333	85.3168	241.333	84.9672	241.333	85.3919	241.333	85.1944	241.333	85.6051	241.333	85.537	241.333	85.9225	241.333	85.9491	241.333	86.2971	241.333	86.3799	241.333	86.6775	241.333	86.7808	241.333	87.0161	241.333	87.1108	241.333	87.2737	241.333	87.3388	241.333	87.4221	241.333	87.4452
250.122	87.1683	250.122	87.0584	250.122	87.1435	250.122	86.8221	250.122	86.988	250.122	86.4799	250.122	86.7184	250.122	86.064	250.122	86.3636	250.122	85.6172	250.122	85.9644	250.122	85.1896	250.122	85.5706	250.122	84.8342	250.122	85.2363	250.122	84.5985	250.122	85.0115	250.122	84.5158	250.122	84.9323	250.122	84.5985	250.122	85.0115	250.122	84.8342	250.122	85.2363	250.122	85.1896	250.122	85.5706	250.122	85.6172	250.122	85.9644	250.122	86.064	250.122	86.3636	250.122	86.4799	250.122	86.7184	250.122	86.8221	250.122	86.988	250.122	87.0584	250.122	87.1435	250.122	87.1683
258.911	87.1121	258.911	87.0251	258.911	87.0586	258.911	86.8078	258.911	86.8671	258.911	86.4823	258.911	86.5535	258.911	86.0822	258.911	86.1474	258.911	85.6504	258.911	85.6921	258.911	85.237	258.911	85.2424	258.911	84.8936	258.911	84.8595	258.911	84.666	258.911	84.6012	258.911	84.5863	258.911	84.5099	258.911	84.666	258.911	84.6012	258.911	84.8936	258.911	84.8595	258.911	85.237	258.911	85.2424	258.911	85.6504	258.911	85.6921	258.911	86.0822	258.911	86.1474	258.911	86.4823	258.911	86.5535	258.911	86.8078	258.911	86.8671	258.911	87.0251	258.911	87.0586	258.911	87.1121
268.066	87.5146	268.066	87.4114	268.066	87.458	268.066	87.1594	268.066	87.2444	268.066	86.7829	268.066	86.8914	268.066	86.3195	268.066	86.4318	268.066	85.8181	268.066	85.914	268.066	85.3365	268.066	85.3999	268.066	84.9349	268.066	84.9599	268.066	84.6681	268.066	84.662	268.066	84.5744	268.066	84.5564	268.066	84.6681	268.066	84.662	268.066	84.9349	268.066	84.9599	268.066	85.3365	268.066	85.3999	268.066	85.8181	268.066	85.914	268.066	86.3195	268.066	86.4318	268.066	86.7829	268.066	86.8914	268.066	87.1594	268.066	87.2444	268.066	87.4114	268.066	87.458	268.066	87.5146
277.222	87.1657	277.222	87.0659	277.222	87.0857	277.222	86.7969	277.222	86.8303	277.222	86.3837	277.222	86.4188	277.222	85.866	277.222	85.8875	277.222	85.2979	277.222	85.2895	277.222	84.7449	277.222	84.6948	277.222	84.2789	277.222	84.184	277.222	83.9666	277.222	83.837	277.222	83.8565	277.222	83.7137	277.222	83.9666	277.222	83.837	277.222	84.2789	277.222	84.184	277.222	84.7449	277.222	84.6948	277.222	85.2979	277.222	85.2895	277.222	85.866	277.222	85.8875	277.222	86.3837	277.222	86.4188	277.222	86.7969	277.222	86.8303	277.222	87.0659	277.222	87.0857	277.222	87.1657
287.109	87.1637	287.109	87.0486	287.109	87.0915	287.109	86.7568	287.109	86.8367	287.109	86.3143	287.109	86.42	287.109	85.7626	287.109	85.879	287.109	85.1584	287.109	85.2691	287.109	84.5711	287.109	84.6623	287.109	84.0763	287.109	84.1415	287.109	83.7449	287.109	83.7879	287.109	83.6281	287.109	83.6625	287.109	83.7449	287.109	83.7879	287.109	84.0763	287.109	84.1415	287.109	84.5711	287.109	84.6623	287.109	85.1584	287.109	85.2691	287.109	85.7626	287.109	85.879	287.109	86.3143	287.109	86.42	287.109	86.7568	287.109	86.8367	287.109	87.0486	287.109	87.0915	287.109	87.1637
297.363	87.0128	297.363	86.893	297.363	86.9377	297.363	86.5889	297.363	86.6728	297.363	86.127	297.363	86.2397	297.363	85.5502	297.363	85.6773	297.363	84.9177	297.363	85.0427	297.363	84.3021	297.363	84.4106	297.363	83.783	297.363	83.8671	297.363	83.4351	297.363	83.4976	297.363	83.3125	297.363	83.3664	297.363	83.4351	297.363	83.4976	297.363	83.783	297.363	83.8671	297.363	84.3021	297.363	84.4106	297.363	84.9177	297.363	85.0427	297.363	85.5502	297.363	85.6773	297.363	86.127	297.363	86.2397	297.363	86.5889	297.363	86.6728	297.363	86.893	297.363	86.9377	297.363	87.0128
307.617	86.9919	307.617	86.9285	307.617	86.8532	307.617	86.6736	307.617	86.5177	307.617	86.2536	307.617	86.0071	307.617	85.7114	307.617	85.3617	307.617	85.1058	307.617	84.6414	307.617	84.5098	307.617	83.9262	307.617	84.0033	307.617	83.3111	307.617	83.6623	307.617	82.8921	307.617	83.5418	307.617	82.743	307.617	83.6623	307.617	82.8921	307.617	84.0033	307.617	83.3111	307.617	84.5098	307.617	83.9262	307.617	85.1058	307.617	84.6414	307.617	85.7114	307.617	85.3617	307.617	86.2536	307.617	86.0071	307.617	86.6736	307.617	86.5177	307.617	86.9285	307.617	86.8532	307.617	86.9919
318.604	87.1991	318.604	87.1072	318.604	87.0789	318.604	86.8156	318.604	86.7504	318.604	86.3524	318.604	86.2344	318.604	85.7623	318.604	85.5711	318.604	85.1065	318.604	84.8225	318.604	84.4614	318.604	84.0729	318.604	83.9125	318.604	83.4241	318.604	83.5421	318.604	82.98	318.604	83.4111	318.604	82.8217	318.604	83.5421	318.604	82.98	318.604	83.9125	318.604	83.4241	318.604	84.4614	318.604	84.0729	318.604	85.1065	318.604	84.8225	318.604	85.7623	318.604	85.5711	318.604	86.3524	318.604	86.2344	318.604	86.8156	318.604	86.7504	318.604	87.1072	318.604	87.0789	318.604	87.1991
329.956	86.8328	329.956	86.677	329.956	86.7585	329.956	86.3053	329.956	86.4565	329.956	85.7486	329.956	85.9473	329.956	85.0557	329.956	85.2718	329.956	84.294	329.956	84.4945	329.956	83.5482	329.956	83.7051	329.956	82.9146	329.956	83.0144	329.956	82.487	329.956	82.5381	329.956	82.3356	329.956	82.3676	329.956	82.487	329.956	82.5381	329.956	82.9146	329.956	83.0144	329.956	83.5482	329.956	83.7051	329.956	84.294	329.956	84.4945	329.956	85.0557	329.956	85.2718	329.956	85.7486	329.956	85.9473	329.956	86.3053	329.956	86.4565	329.956	86.677	329.956	86.7585	329.956	86.8328
341.675	87.0282	341.675	86.8449	341.675	86.9636	341.675	86.425	341.675	86.6569	341.675	85.7975	341.675	86.1318	341.675	85.0109	341.675	85.4324	341.675	84.1365	341.675	84.6265	341.675	83.2691	341.675	83.8074	341.675	82.5223	341.675	83.0901	341.675	82.0127	341.675	82.5951	341.675	81.8312	341.675	82.4178	341.675	82.0127	341.675	82.5951	341.675	82.5223	341.675	83.0901	341.675	83.2691	341.675	83.8074	341.675	84.1365	341.675	84.6265	341.675	85.0109	341.675	85.4324	341.675	85.7975	341.675	86.1318	341.675	86.425	341.675	86.6569	341.675	86.8449	341.675	86.9636	341.675	87.0282
353.394	86.9741	353.394	86.7653	353.394	86.92	353.394	86.3061	353.394	86.6076	353.394	85.6275	353.394	86.0601	353.394	84.7811	353.394	85.3221	353.394	83.8424	353.394	84.464	353.394	82.9126	353.394	83.5848	353.394	82.1132	353.394	82.8093	353.394	81.5683	353.394	82.271	353.394	81.3744	353.394	82.0775	353.394	81.5683	353.394	82.271	353.394	82.1132	353.394	82.8093	353.394	82.9126	353.394	83.5848	353.394	83.8424	353.394	84.464	353.394	84.7811	353.394	85.3221	353.394	85.6275	353.394	86.0601	353.394	86.3061	353.394	86.6076	353.394	86.7653	353.394	86.92	353.394	86.9741
365.845	86.7057	365.845	86.525	365.845	86.6081	365.845	86.0774	365.845	86.2383	365.845	85.3936	365.845	85.6215	365.845	84.526	365.845	84.8053	365.845	83.5531	365.845	83.8641	365.845	82.5813	365.845	82.9033	365.845	81.7403	365.845	82.0566	365.845	81.1643	365.845	81.4687	365.845	80.9589	365.845	81.2573	365.845	81.1643	365.845	81.4687	365.845	81.7403	365.845	82.0566	365.845	82.5813	365.845	82.9033	365.845	83.5531	365.845	83.8641	365.845	84.526	365.845	84.8053	365.845	85.3936	365.845	85.6215	365.845	86.0774	365.845	86.2383	365.845	86.525	365.845	86.6081	365.845	86.7057
379.028	86.253	379.028	86.0872	379.028	86.1153	379.028	85.6311	379.028	85.6788	379.028	84.9175	379.028	84.9678	379.028	84.0017	379.028	84.0304	379.028	82.9668	379.028	82.9455	379.028	81.9271	379.028	81.8294	379.028	81.0235	379.028	80.8366	379.028	80.4032	379.028	80.1411	379.028	80.1816	379.028	79.8897	379.028	80.4032	379.028	80.1411	379.028	81.0235	379.028	80.8366	379.028	81.9271	379.028	81.8294	379.028	82.9668	379.028	82.9455	379.028	84.0017	379.028	84.0304	379.028	84.9175	379.028	84.9678	379.028	85.6311	379.028	85.6788	379.028	86.0872	379.028	86.1153	379.028	86.253
392.212	86.2572	392.212	86.0471	392.212	86.1558	392.212	85.5392	392.212	85.7488	392.212	84.7681	392.212	85.0629	392.212	83.7932	392.212	84.1497	392.212	82.704	392.212	83.0915	392.212	81.6216	392.212	82.0067	392.212	80.6915	392.212	81.0475	392.212	80.0593	392.212	80.3798	392.212	79.835	392.212	80.1395	392.212	80.0593	392.212	80.3798	392.212	80.6915	392.212	81.0475	392.212	81.6216	392.212	82.0067	392.212	82.704	392.212	83.0915	392.212	83.7932	392.212	84.1497	392.212	84.7681	392.212	85.0629	392.212	85.5392	392.212	85.7488	392.212	86.0471	392.212	86.1558	392.212	86.2572
406.128	86.3864	406.128	86.1615	406.128	86.2913	406.128	85.6312	406.128	85.8815	406.128	84.8321	406.128	85.1838	406.128	83.8269	406.128	84.2503	406.128	82.7092	406.128	83.1646	406.128	81.6047	406.128	82.0472	406.128	80.6614	406.128	81.055	406.128	80.0242	406.128	80.3616	406.128	79.7989	406.128	80.1114	406.128	80.0242	406.128	80.3616	406.128	80.6614	406.128	81.055	406.128	81.6047	406.128	82.0472	406.128	82.7092	406.128	83.1646	406.128	83.8269	406.128	84.2503	406.128	84.8321	406.128	85.1838	406.128	85.6312	406.128	85.8815	406.128	86.1615	406.128	86.2913	406.128	86.3864
420.41	86.4257	420.41	86.1777	420.41	86.3449	420.41	85.617	420.41	85.9417	420.41	84.7841	420.41	85.2455	420.41	83.7483	420.41	84.3129	420.41	82.6115	420.41	83.2322	420.41	81.5059	420.41	82.1274	420.41	80.5784	420.41	81.154	420.41	79.962	420.41	80.4787	420.41	79.7462	420.41	80.236	420.41	79.962	420.41	80.4787	420.41	80.5784	420.41	81.154	420.41	81.5059	420.41	82.1274	420.41	82.6115	420.41	83.2322	420.41	83.7483	420.41	84.3129	420.41	84.7841	420.41	85.2455	420.41	85.617	420.41	85.9417	420.41	86.1777	420.41	86.3449	420.41	86.4257
435.425	86.4831	435.425	86.2622	435.425	86.3744	435.425	85.7312	435.425	85.9399	435.425	84.9348	435.425	85.2075	435.425	83.9464	435.425	84.2326	435.425	82.8693	435.425	83.1039	435.425	81.8317	435.425	81.9472	435.425	80.9695	435.425	80.9242	435.425	80.4005	435.425	80.2113	435.425	80.202	435.425	79.9544	435.425	80.4005	435.425	80.2113	435.425	80.9695	435.425	80.9242	435.425	81.8317	435.425	81.9472	435.425	82.8693	435.425	83.1039	435.425	83.9464	435.425	84.2326	435.425	84.9348	435.425	85.2075	435.425	85.7312	435.425	85.9399	435.425	86.2622	435.425	86.3744	435.425	86.4831
450.806	86.6799	450.806	86.4733	450.806	86.5445	450.806	85.9459	450.806	86.0716	450.806	85.1465	450.806	85.2921	450.806	84.1554	450.806	84.2663	450.806	83.0837	450.806	83.0897	450.806	82.0641	450.806	81.895	450.806	81.2293	450.806	80.8478	450.806	80.6856	450.806	80.1235	450.806	80.4974	450.806	79.8637	450.806	80.6856	450.806	80.1235	450.806	81.2293	450.806	80.8478	450.806	82.0641	450.806	81.895	450.806	83.0837	450.806	83.0897	450.806	84.1554	450.806	84.2663	450.806	85.1465	450.806	85.2921	450.806	85.9459	450.806	86.0716	450.806	86.4733	450.806	86.5445	450.806	86.6799
466.553	86.8988	466.553	86.734	466.553	86.7444	466.553	86.2715	466.553	86.276	466.553	85.5607	466.553	85.5263	466.553	84.6798	466.553	84.5574	466.553	83.7321	466.553	83.463	466.553	82.8352	466.553	82.368	466.553	82.1022	466.553	81.4207	466.553	81.6243	466.553	80.7727	466.553	81.4585	466.553	80.5416	466.553	81.6243	466.553	80.7727	466.553	82.1022	466.553	81.4207	466.553	82.8352	466.553	82.368	466.553	83.7321	466.553	83.463	466.553	84.6798	466.553	84.5574	466.553	85.5607	466.553	85.5263	466.553	86.2715	466.553	86.276	466.553	86.734	466.553	86.7444	466.553	86.8988
483.032	86.9966	483.032	86.8284	483.032	86.8533	483.032	86.3742	483.032	86.4013	483.032	85.688	483.032	85.6713	483.032	84.8514	483.032	84.7241	483.032	83.9669	483.032	83.652	483.032	83.144	483.032	82.5788	483.032	82.4816	483.032	81.6512	483.032	82.0542	483.032	81.0178	483.032	81.9068	483.032	80.7922	483.032	82.0542	483.032	81.0178	483.032	82.4816	483.032	81.6512	483.032	83.144	483.032	82.5788	483.032	83.9669	483.032	83.652	483.032	84.8514	483.032	84.7241	483.032	85.688	483.032	85.6713	483.032	86.3742	483.032	86.4013	483.032	86.8284	483.032	86.8533	483.032	86.9966
499.878	87.2543	499.878	87.0928	499.878	87.098	499.878	86.638	499.878	86.6261	499.878	85.9416	499.878	85.8688	499.878	85.0815	499.878	84.8866	499.878	84.1581	499.878	83.7746	499.878	83.284	499.878	82.6617	499.878	82.5684	499.878	81.7024	499.878	82.1006	499.878	81.0501	499.878	81.9381	499.878	80.8187	499.878	82.1006	499.878	81.0501	499.878	82.5684	499.878	81.7024	499.878	83.284	499.878	82.6617	499.878	84.1581	499.878	83.7746	499.878	85.0815	499.878	84.8866	499.878	85.9416	499.878	85.8688	499.878	86.638	499.878	86.6261	499.878	87.0928	499.878	87.098	499.878	87.2543
517.456	87.1351	517.456	86.8974	517.456	87.0491	517.456	86.3598	517.456	86.6464	517.456	85.576	517.456	85.9641	517.456	84.6269	517.456	85.0698	517.456	83.6147	517.456	84.0609	517.456	82.6544	517.456	83.0621	517.456	81.8625	517.456	82.2134	517.456	81.3405	517.456	81.644	517.456	81.1583	517.456	81.4437	517.456	81.3405	517.456	81.644	517.456	81.8625	517.456	82.2134	517.456	82.6544	517.456	83.0621	517.456	83.6147	517.456	84.0609	517.456	84.6269	517.456	85.0698	517.456	85.576	517.456	85.9641	517.456	86.3598	517.456	86.6464	517.456	86.8974	517.456	87.0491	517.456	87.1351
535.767	87.262	535.767	87.0884	535.767	87.1111	535.767	86.6111	535.767	86.6449	535.767	85.8795	535.767	85.9034	535.767	84.9693	535.767	84.9592	535.767	83.9783	535.767	83.9172	535.767	83.0204	535.767	82.909	535.767	82.2166	535.767	82.0736	535.767	81.6792	535.767	81.5266	535.767	81.49	535.767	81.3372	535.767	81.6792	535.767	81.5266	535.767	82.2166	535.767	82.0736	535.767	83.0204	535.767	82.909	535.767	83.9783	535.767	83.9172	535.767	84.9693	535.767	84.9592	535.767	85.8795	535.767	85.9034	535.767	86.6111	535.767	86.6449	535.767	87.0884	535.767	87.1111	535.767	87.262
554.81	87.5643	554.81	87.3862	554.81	87.4086	554.81	86.8937	554.81	86.9281	554.81	86.1338	554.81	86.1619	554.81	85.1809	554.81	85.1828	554.81	84.1357	554.81	84.1	554.81	83.1205	554.81	83.0537	554.81	82.2677	554.81	82.1909	554.81	81.6984	554.81	81.6295	554.81	81.4983	554.81	81.436	554.81	81.6984	554.81	81.6295	554.81	82.2677	554.81	82.1909	554.81	83.1205	554.81	83.0537	554.81	84.1357	554.81	84.1	554.81	85.1809	554.81	85.1828	554.81	86.1338	554.81	86.1619	554.81	86.8937	554.81	86.9281	554.81	87.3862	554.81	87.4086	554.81	87.5643
574.219	87.5226	574.219	87.3549	574.219	87.3534	574.219	86.8683	574.219	86.856	574.219	86.1068	574.219	86.0691	574.219	85.1414	574.219	85.0683	574.219	84.0713	574.219	83.9698	574.219	83.0208	574.219	82.9231	574.219	82.1289	574.219	82.0774	574.219	81.5282	574.219	81.5394	574.219	81.3159	574.219	81.3567	574.219	81.5282	574.219	81.5394	574.219	82.1289	574.219	82.0774	574.219	83.0208	574.219	82.9231	574.219	84.0713	574.219	83.9698	574.219	85.1414	574.219	85.0683	574.219	86.1068	574.219	86.0691	574.219	86.8683	574.219	86.856	574.219	87.3549	574.219	87.3534	574.219	87.5226
594.727	87.5432	594.727	87.3714	594.727	87.326	594.727	86.8281	594.727	86.7316	594.727	85.9609	594.727	85.8045	594.727	84.8507	594.727	84.6299	594.727	83.6143	594.727	83.3397	594.727	82.4007	594.727	82.1054	594.727	81.3748	594.727	81.103	594.727	80.688	594.727	80.4624	594.727	80.4465	594.727	80.2443	594.727	80.688	594.727	80.4624	594.727	81.3748	594.727	81.103	594.727	82.4007	594.727	82.1054	594.727	83.6143	594.727	83.3397	594.727	84.8507	594.727	84.6299	594.727	85.9609	594.727	85.8045	594.727	86.8281	594.727	86.7316	594.727	87.3714	594.727	87.326	594.727	87.5432
615.601	87.2345	615.601	87.0899	615.601	87.0096	615.601	86.5942	615.601	86.4276	615.601	85.7987	615.601	85.5357	615.601	84.7909	615.601	84.4213	615.601	83.6946	615.601	83.2132	615.601	82.6558	615.601	82.0682	615.601	81.8149	615.601	81.1386	615.601	81.2748	615.601	80.5389	615.601	81.0897	615.601	80.3327	615.601	81.2748	615.601	80.5389	615.601	81.8149	615.601	81.1386	615.601	82.6558	615.601	82.0682	615.601	83.6946	615.601	83.2132	615.601	84.7909	615.601	84.4213	615.601	85.7987	615.601	85.5357	615.601	86.5942	615.601	86.4276	615.601	87.0899	615.601	87.0096	615.601	87.2345
637.207	87.2744	637.207	87.0776	637.207	87.075	637.207	86.5167	637.207	86.4891	637.207	85.6636	637.207	85.5728	637.207	84.6292	637.207	84.4354	637.207	83.5547	637.207	83.2343	637.207	82.5866	637.207	82.1447	637.207	81.8417	637.207	81.3091	637.207	81.3834	637.207	80.7998	637.207	81.2302	637.207	80.6309	637.207	81.3834	637.207	80.7998	637.207	81.8417	637.207	81.3091	637.207	82.5866	637.207	82.1447	637.207	83.5547	637.207	83.2343	637.207	84.6292	637.207	84.4354	637.207	85.6636	637.207	85.5728	637.207	86.5167	637.207	86.4891	637.207	87.0776	637.207	87.075	637.207	87.2744
659.912	87.0655	659.912	86.8487	659.912	86.8302	659.912	86.211	659.912	86.172	659.912	85.2406	659.912	85.1857	659.912	84.0756	659.912	84.0322	659.912	82.8849	659.912	82.9145	659.912	81.8317	659.912	82.0157	659.912	81.0331	659.912	81.4242	659.912	80.5458	659.912	81.1174	659.912	80.3833	659.912	81.0265	659.912	80.5458	659.912	81.1174	659.912	81.0331	659.912	81.4242	659.912	81.8317	659.912	82.0157	659.912	82.8849	659.912	82.9145	659.912	84.0756	659.912	84.0322	659.912	85.2406	659.912	85.1857	659.912	86.211	659.912	86.172	659.912	86.8487	659.912	86.8302	659.912	87.0655
682.983	86.6843	682.983	86.4708	682.983	86.4531	682.983	85.8564	682.983	85.8035	682.983	84.951	682.983	84.835	682.983	83.9164	682.983	83.7143	682.983	82.93	682.983	82.6443	682.983	82.1315	682.983	81.7964	682.983	81.5835	682.983	81.2438	682.983	81.2788	682.983	80.9575	682.983	81.183	682.983	80.8723	682.983	81.2788	682.983	80.9575	682.983	81.5835	682.983	81.2438	682.983	82.1315	682.983	81.7964	682.983	82.93	682.983	82.6443	682.983	83.9164	682.983	83.7143	682.983	84.951	682.983	84.835	682.983	85.8564	682.983	85.8035	682.983	86.4708	682.983	86.4531	682.983	86.6843
707.153	86.7625	707.153	86.5501	707.153	86.5182	707.153	85.9334	707.153	85.8461	707.153	85.0364	707.153	84.8588	707.153	84.0268	707.153	83.7388	707.153	83.0686	707.153	82.6942	707.153	82.2739	707.153	81.8848	707.153	81.693	707.153	81.3654	707.153	81.3405	707.153	81.098	707.153	81.2222	707.153	81.0184	707.153	81.3405	707.153	81.098	707.153	81.693	707.153	81.3654	707.153	82.2739	707.153	81.8848	707.153	83.0686	707.153	82.6942	707.153	84.0268	707.153	83.7388	707.153	85.0364	707.153	84.8588	707.153	85.9334	707.153	85.8461	707.153	86.5501	707.153	86.5182	707.153	86.7625
732.056	86.5825	732.056	86.381	732.056	86.3214	732.056	85.7764	732.056	85.644	732.056	84.9163	732.056	84.6971	732.056	83.9889	732.056	83.6935	732.056	83.1548	732.056	82.8398	732.056	82.5013	732.056	82.2545	732.056	82.0485	732.056	81.9336	732.056	81.7856	732.056	81.7955	732.056	81.6996	732.056	81.7597	732.056	81.7856	732.056	81.7955	732.056	82.0485	732.056	81.9336	732.056	82.5013	732.056	82.2545	732.056	83.1548	732.056	82.8398	732.056	83.9889	732.056	83.6935	732.056	84.9163	732.056	84.6971	732.056	85.7764	732.056	85.644	732.056	86.381	732.056	86.3214	732.056	86.5825
757.69	86.2162	757.69	86.0987	757.69	86.0176	757.69	85.7267	757.69	85.5231	757.69	85.2037	757.69	84.8273	757.69	84.6207	757.69	84.0614	757.69	84.0386	757.69	83.3548	757.69	83.5086	757.69	82.807	757.69	83.0849	757.69	82.4577	757.69	82.8132	757.69	82.2816	757.69	82.72	757.69	82.2304	757.69	82.8132	757.69	82.2816	757.69	83.0849	757.69	82.4577	757.69	83.5086	757.69	82.807	757.69	84.0386	757.69	83.3548	757.69	84.6207	757.69	84.0614	757.69	85.2037	757.69	84.8273	757.69	85.7267	757.69	85.5231	757.69	86.0987	757.69	86.0176	757.69	86.2162
784.424	86.3432	784.424	86.2696	784.424	86.1497	784.424	85.937	784.424	85.733	784.424	85.3928	784.424	85.1672	784.424	84.7064	784.424	84.522	784.424	83.9684	784.424	83.8576	784.424	83.2866	784.424	83.2384	784.424	82.757	784.424	82.7319	784.424	82.4324	784.424	82.3988	784.424	82.3246	784.424	82.2823	784.424	82.4324	784.424	82.3988	784.424	82.757	784.424	82.7319	784.424	83.2866	784.424	83.2384	784.424	83.9684	784.424	83.8576	784.424	84.7064	784.424	84.522	784.424	85.3928	784.424	85.1672	784.424	85.937	784.424	85.733	784.424	86.2696	784.424	86.1497	784.424	86.3432
812.256	86.2564	812.256	86.2636	812.256	86.0938	812.256	86.0975	812.256	85.789	812.256	85.7484	812.256	85.3589	812.256	85.2412	812.256	84.8446	812.256	84.6536	812.256	84.3267	812.256	84.0951	812.256	83.8999	812.256	83.6596	812.256	83.6204	812.256	83.3935	812.256	83.4809	812.256	83.3053	812.256	83.4415	812.256	83.3935	812.256	83.4809	812.256	83.6596	812.256	83.6204	812.256	84.0951	812.256	83.8999	812.256	84.6536	812.256	84.3267	812.256	85.2412	812.256	84.8446	812.256	85.7484	812.256	85.3589	812.256	86.0975	812.256	85.789	812.256	86.2636	812.256	86.0938	812.256	86.2564
840.82	86.2969	840.82	86.3439	840.82	86.0942	840.82	86.1839	840.82	85.7776	840.82	85.8008	840.82	85.3749	840.82	85.2558	840.82	84.9292	840.82	84.6811	840.82	84.5192	840.82	84.2145	840.82	84.2281	840.82	83.9229	840.82	84.0851	840.82	83.7859	840.82	84.0473	840.82	83.7491	840.82	84.0455	840.82	83.7859	840.82	84.0473	840.82	83.9229	840.82	84.0851	840.82	84.2145	840.82	84.2281	840.82	84.6811	840.82	84.5192	840.82	85.2558	840.82	84.9292	840.82	85.8008	840.82	85.3749	840.82	86.1839	840.82	85.7776	840.82	86.3439	840.82	86.0942	840.82	86.2969
870.483	86.4987	870.483	86.573	870.483	86.2878	870.483	86.4409	870.483	86.0074	870.483	86.0814	870.483	85.7037	870.483	85.5521	870.483	85.4173	870.483	84.9673	870.483	85.192	870.483	84.4398	870.483	85.0535	870.483	84.0401	870.483	84.993	870.483	83.7966	870.483	84.9784	870.483	83.7153	870.483	84.9778	870.483	83.7966	870.483	84.9784	870.483	84.0401	870.483	84.993	870.483	84.4398	870.483	85.0535	870.483	84.9673	870.483	85.192	870.483	85.5521	870.483	85.4173	870.483	86.0814	870.483	85.7037	870.483	86.4409	870.483	86.0074	870.483	86.573	870.483	86.2878	870.483	86.4987
901.245	86.6124	901.245	86.7736	901.245	86.3347	901.245	86.7317	901.245	86.0398	901.245	86.4694	901.245	85.7917	901.245	86.0461	901.245	85.6108	901.245	85.5481	901.245	85.4849	901.245	85.0465	901.245	85.3864	901.245	84.6042	901.245	85.2956	901.245	84.2929	901.245	85.2209	901.245	84.1796	901.245	85.1906	901.245	84.2929	901.245	85.2209	901.245	84.6042	901.245	85.2956	901.245	85.0465	901.245	85.3864	901.245	85.5481	901.245	85.4849	901.245	86.0461	901.245	85.6108	901.245	86.4694	901.245	85.7917	901.245	86.7317	901.245	86.0398	901.245	86.7736	901.245	86.3347	901.245	86.6124
933.105	86.8684	933.105	86.9013	933.105	86.7638	933.105	86.834	933.105	86.6358	933.105	86.6715	933.105	86.5293	933.105	86.4359	933.105	86.4586	933.105	86.1384	933.105	86.39	933.105	85.7957	933.105	86.275	933.105	85.4632	933.105	86.1088	933.105	85.2215	933.105	85.9514	933.105	85.1336	933.105	85.886	933.105	85.2215	933.105	85.9514	933.105	85.4632	933.105	86.1088	933.105	85.7957	933.105	86.275	933.105	86.1384	933.105	86.39	933.105	86.4359	933.105	86.4586	933.105	86.6715	933.105	86.5293	933.105	86.834	933.105	86.6358	933.105	86.9013	933.105	86.7638	933.105	86.8684
966.064	86.6902	966.064	86.712	966.064	86.6486	966.064	86.732	966.064	86.6085	966.064	86.756	966.064	86.6107	966.064	86.7237	966.064	86.655	966.064	86.5436	966.064	86.6879	966.064	86.1913	966.064	86.6614	966.064	85.7573	966.064	86.5836	966.064	85.402	966.064	86.5056	966.064	85.2656	966.064	86.4742	966.064	85.402	966.064	86.5056	966.064	85.7573	966.064	86.5836	966.064	86.1913	966.064	86.6614	966.064	86.5436	966.064	86.6879	966.064	86.7237	966.064	86.655	966.064	86.756	966.064	86.6107	966.064	86.732	966.064	86.6085	966.064	86.712	966.064	86.6486	966.064	86.6902
1,000.12	87.206	1,000.12	86.9844	1,000.12	87.3275	1,000.12	86.7739	1,000.12	87.3144	1,000.12	86.6276	1,000.12	87.2112	1,000.12	86.4649	1,000.12	87.0572	1,000.12	86.1742	1,000.12	86.863	1,000.12	85.7465	1,000.12	86.6546	1,000.12	85.298	1,000.12	86.4843	1,000.12	84.9777	1,000.12	86.3874	1,000.12	84.8658	1,000.12	86.3589	1,000.12	84.9777	1,000.12	86.3874	1,000.12	85.298	1,000.12	86.4843	1,000.12	85.7465	1,000.12	86.6546	1,000.12	86.1742	1,000.12	86.863	1,000.12	86.4649	1,000.12	87.0572	1,000.12	86.6276	1,000.12	87.2112	1,000.12	86.7739	1,000.12	87.3144	1,000.12	86.9844	1,000.12	87.3275	1,000.12	87.206
1,035.28	87.1905	1,035.28	87.5114	1,035.28	87.027	1,035.28	87.7929	1,035.28	87.0485	1,035.28	87.7643	1,035.28	87.154	1,035.28	87.3069	1,035.28	87.1991	1,035.28	86.5813	1,035.28	87.1361	1,035.28	85.9461	1,035.28	87.0589	1,035.28	85.6711	1,035.28	87.0738	1,035.28	85.6898	1,035.28	87.1612	1,035.28	85.74	1,035.28	87.2104	1,035.28	85.6898	1,035.28	87.1612	1,035.28	85.6711	1,035.28	87.0738	1,035.28	85.9461	1,035.28	87.0589	1,035.28	86.5813	1,035.28	87.1361	1,035.28	87.3069	1,035.28	87.1991	1,035.28	87.7643	1,035.28	87.154	1,035.28	87.7929	1,035.28	87.0485	1,035.28	87.5114	1,035.28	87.027	1,035.28	87.1905
1,071.9	86.7874	1,071.9	87.4892	1,071.9	86.5378	1,071.9	88.1241	1,071.9	86.8623	1,071.9	88.2684	1,071.9	87.3949	1,071.9	87.8593	1,071.9	87.7478	1,071.9	87.1727	1,071.9	87.8228	1,071.9	86.568	1,071.9	87.7343	1,071.9	86.1863	1,071.9	87.6144	1,071.9	85.9855	1,071.9	87.5295	1,071.9	85.922	1,071.9	87.5	1,071.9	85.9855	1,071.9	87.5295	1,071.9	86.1863	1,071.9	87.6144	1,071.9	86.568	1,071.9	87.7343	1,071.9	87.1727	1,071.9	87.8228	1,071.9	87.8593	1,071.9	87.7478	1,071.9	88.2684	1,071.9	87.3949	1,071.9	88.1241	1,071.9	86.8623	1,071.9	87.4892	1,071.9	86.5378	1,071.9	86.7874
1,109.62	86.1466	1,109.62	86.8461	1,109.62	86.0121	1,109.62	87.5633	1,109.62	86.5446	1,109.62	87.861	1,109.62	87.3384	1,109.62	87.6969	1,109.62	87.9858	1,109.62	87.2783	1,109.62	88.3489	1,109.62	86.7439	1,109.62	88.4472	1,109.62	86.108	1,109.62	88.3447	1,109.62	85.5053	1,109.62	88.1668	1,109.62	85.2446	1,109.62	88.0801	1,109.62	85.5053	1,109.62	88.1668	1,109.62	86.108	1,109.62	88.3447	1,109.62	86.7439	1,109.62	88.4472	1,109.62	87.2783	1,109.62	88.3489	1,109.62	87.6969	1,109.62	87.9858	1,109.62	87.861	1,109.62	87.3384	1,109.62	87.5633	1,109.62	86.5446	1,109.62	86.8461	1,109.62	86.0121	1,109.62	86.1466
1,148.8	86.0516	1,148.8	86.4304	1,148.8	86.0558	1,148.8	86.8923	1,148.8	86.4901	1,148.8	87.1538	1,148.8	87.0952	1,148.8	87.1506	1,148.8	87.6095	1,148.8	86.9067	1,148.8	87.9427	1,148.8	86.4067	1,148.8	88.0534	1,148.8	85.7392	1,148.8	87.9483	1,148.8	85.1715	1,148.8	87.7532	1,148.8	84.9557	1,148.8	87.6571	1,148.8	85.1715	1,148.8	87.7532	1,148.8	85.7392	1,148.8	87.9483	1,148.8	86.4067	1,148.8	88.0534	1,148.8	86.9067	1,148.8	87.9427	1,148.8	87.1506	1,148.8	87.6095	1,148.8	87.1538	1,148.8	87.0952	1,148.8	86.8923	1,148.8	86.4901	1,148.8	86.4304	1,148.8	86.0558	1,148.8	86.0516
1,189.09	86.1732	1,189.09	86.432	1,189.09	85.9324	1,189.09	86.615	1,189.09	86.0291	1,189.09	86.5924	1,189.09	86.6719	1,189.09	86.2659	1,189.09	87.4949	1,189.09	85.6702	1,189.09	88.0462	1,189.09	84.9864	1,189.09	88.1861	1,189.09	84.5216	1,189.09	88.077	1,189.09	84.404	1,189.09	87.9555	1,189.09	84.4197	1,189.09	87.9157	1,189.09	84.404	1,189.09	87.9555	1,189.09	84.5216	1,189.09	88.077	1,189.09	84.9864	1,189.09	88.1861	1,189.09	85.6702	1,189.09	88.0462	1,189.09	86.2659	1,189.09	87.4949	1,189.09	86.5924	1,189.09	86.6719	1,189.09	86.615	1,189.09	86.0291	1,189.09	86.432	1,189.09	85.9324	1,189.09	86.1732
1,231.2	86.4246	1,231.2	86.4746	1,231.2	86.1158	1,231.2	86.4199	1,231.2	85.9137	1,231.2	86.2988	1,231.2	86.3316	1,231.2	85.9025	1,231.2	87.0741	1,231.2	85.207	1,231.2	87.5664	1,231.2	84.5379	1,231.2	87.6823	1,231.2	84.1998	1,231.2	87.6215	1,231.2	84.1295	1,231.2	87.5616	1,231.2	84.1329	1,231.2	87.5436	1,231.2	84.1295	1,231.2	87.5616	1,231.2	84.1998	1,231.2	87.6215	1,231.2	84.5379	1,231.2	87.6823	1,231.2	85.207	1,231.2	87.5664	1,231.2	85.9025	1,231.2	87.0741	1,231.2	86.2988	1,231.2	86.3316	1,231.2	86.4199	1,231.2	85.9137	1,231.2	86.4746	1,231.2	86.1158	1,231.2	86.4246
1,274.41	86.8779	1,274.41	86.514	1,274.41	86.666	1,274.41	85.9448	1,274.41	86.1512	1,274.41	85.541	1,274.41	85.9954	1,274.41	85.1727	1,274.41	86.3433	1,274.41	84.6292	1,274.41	86.8012	1,274.41	83.9064	1,274.41	87.1484	1,274.41	83.0896	1,274.41	87.3533	1,274.41	82.3652	1,274.41	87.4181	1,274.41	82.0609	1,274.41	87.4187	1,274.41	82.3652	1,274.41	87.4181	1,274.41	83.0896	1,274.41	87.3533	1,274.41	83.9064	1,274.41	87.1484	1,274.41	84.6292	1,274.41	86.8012	1,274.41	85.1727	1,274.41	86.3433	1,274.41	85.541	1,274.41	85.9954	1,274.41	85.9448	1,274.41	86.1512	1,274.41	86.514	1,274.41	86.666	1,274.41	86.8779
1,319.46	86.9934	1,319.46	86.5892	1,319.46	86.674	1,319.46	85.6651	1,319.46	85.939	1,319.46	84.6246	1,319.46	85.5217	1,319.46	83.705	1,319.46	85.8408	1,319.46	83.0075	1,319.46	86.4546	1,319.46	82.6115	1,319.46	86.7925	1,319.46	82.3907	1,319.46	86.6929	1,319.46	82.2043	1,319.46	86.3746	1,319.46	82.1184	1,319.46	86.2076	1,319.46	82.2043	1,319.46	86.3746	1,319.46	82.3907	1,319.46	86.6929	1,319.46	82.6115	1,319.46	86.7925	1,319.46	83.0075	1,319.46	86.4546	1,319.46	83.705	1,319.46	85.8408	1,319.46	84.6246	1,319.46	85.5217	1,319.46	85.6651	1,319.46	85.939	1,319.46	86.5892	1,319.46	86.674	1,319.46	86.9934
1,365.97	86.9402	1,365.97	86.5476	1,365.97	86.9533	1,365.97	85.8513	1,365.97	86.6689	1,365.97	84.9858	1,365.97	86.3438	1,365.97	83.9831	1,365.97	86.2313	1,365.97	82.8261	1,365.97	86.2273	1,365.97	81.5211	1,365.97	86.0534	1,365.97	80.3395	1,365.97	85.6993	1,365.97	79.6892	1,365.97	85.3954	1,365.97	79.5319	1,365.97	85.2894	1,365.97	79.6892	1,365.97	85.3954	1,365.97	80.3395	1,365.97	85.6993	1,365.97	81.5211	1,365.97	86.0534	1,365.97	82.8261	1,365.97	86.2273	1,365.97	83.9831	1,365.97	86.2313	1,365.97	84.9858	1,365.97	86.3438	1,365.97	85.8513	1,365.97	86.6689	1,365.97	86.5476	1,365.97	86.9533	1,365.97	86.9402
1,414.31	86.9252	1,414.31	86.3565	1,414.31	87.012	1,414.31	85.2439	1,414.31	86.84	1,414.31	83.8989	1,414.31	86.5954	1,414.31	82.745	1,414.31	86.4865	1,414.31	81.7034	1,414.31	86.5156	1,414.31	80.518	1,414.31	86.3494	1,414.31	79.3582	1,414.31	85.9587	1,414.31	78.444	1,414.31	85.6197	1,414.31	78.053	1,414.31	85.4962	1,414.31	78.444	1,414.31	85.6197	1,414.31	79.3582	1,414.31	85.9587	1,414.31	80.518	1,414.31	86.3494	1,414.31	81.7034	1,414.31	86.5156	1,414.31	82.745	1,414.31	86.4865	1,414.31	83.8989	1,414.31	86.5954	1,414.31	85.2439	1,414.31	86.84	1,414.31	86.3565	1,414.31	87.012	1,414.31	86.9252
1,464.11	85.8694	1,464.11	85.7727	1,464.11	86.3015	1,464.11	85.5677	1,464.11	86.7869	1,464.11	84.5481	1,464.11	86.8879	1,464.11	82.49	1,464.11	86.4229	1,464.11	79.903	1,464.11	85.5287	1,464.11	78.1494	1,464.11	84.6563	1,464.11	78.2023	1,464.11	84.0922	1,464.11	78.9233	1,464.11	83.7482	1,464.11	79.2506	1,464.11	83.6117	1,464.11	78.9233	1,464.11	83.7482	1,464.11	78.2023	1,464.11	84.0922	1,464.11	78.1494	1,464.11	84.6563	1,464.11	79.903	1,464.11	85.5287	1,464.11	82.49	1,464.11	86.4229	1,464.11	84.5481	1,464.11	86.8879	1,464.11	85.5677	1,464.11	86.7869	1,464.11	85.7727	1,464.11	86.3015	1,464.11	85.8694
1,515.75	85.433	1,515.75	85.1929	1,515.75	86.0147	1,515.75	85.0112	1,515.75	86.5777	1,515.75	83.8535	1,515.75	86.6615	1,515.75	81.0773	1,515.75	86.0668	1,515.75	78.165	1,515.75	85.0346	1,515.75	77.7467	1,515.75	83.9744	1,515.75	78.6406	1,515.75	82.9725	1,515.75	79.574	1,515.75	82.1027	1,515.75	79.9721	1,515.75	81.7309	1,515.75	79.574	1,515.75	82.1027	1,515.75	78.6406	1,515.75	82.9725	1,515.75	77.7467	1,515.75	83.9744	1,515.75	78.165	1,515.75	85.0346	1,515.75	81.0773	1,515.75	86.0668	1,515.75	83.8535	1,515.75	86.6615	1,515.75	85.0112	1,515.75	86.5777	1,515.75	85.1929	1,515.75	86.0147	1,515.75	85.433
1,569.21	85.7585	1,569.21	84.983	1,569.21	86.0514	1,569.21	83.9142	1,569.21	86.034	1,569.21	82.4144	1,569.21	85.7749	1,569.21	80.1944	1,569.21	85.3296	1,569.21	78.8351	1,569.21	84.7101	1,569.21	78.3727	1,569.21	83.8883	1,569.21	77.7856	1,569.21	83.2493	1,569.21	77.4204	1,569.21	83.1324	1,569.21	77.3666	1,569.21	83.1934	1,569.21	77.4204	1,569.21	83.1324	1,569.21	77.7856	1,569.21	83.2493	1,569.21	78.3727	1,569.21	83.8883	1,569.21	78.8351	1,569.21	84.7101	1,569.21	80.1944	1,569.21	85.3296	1,569.21	82.4144	1,569.21	85.7749	1,569.21	83.9142	1,569.21	86.034	1,569.21	84.983	1,569.21	86.0514	1,569.21	85.7585
1,624.51	85.9522	1,624.51	84.6464	1,624.51	86.015	1,624.51	82.3996	1,624.51	85.3326	1,624.51	80.3061	1,624.51	84.6137	1,624.51	79.4117	1,624.51	84.2638	1,624.51	78.6731	1,624.51	84.2324	1,624.51	77.7679	1,624.51	84.2417	1,624.51	77.6653	1,624.51	84.2357	1,624.51	77.4362	1,624.51	84.1991	1,624.51	77.3192	1,624.51	84.1668	1,624.51	77.4362	1,624.51	84.1991	1,624.51	77.6653	1,624.51	84.2357	1,624.51	77.7679	1,624.51	84.2417	1,624.51	78.6731	1,624.51	84.2324	1,624.51	79.4117	1,624.51	84.2638	1,624.51	80.3061	1,624.51	84.6137	1,624.51	82.3996	1,624.51	85.3326	1,624.51	84.6464	1,624.51	86.015	1,624.51	85.9522
1,681.64	86.2635	1,681.64	85.2588	1,681.64	86.1574	1,681.64	82.5826	1,681.64	85.3963	1,681.64	79.1772	1,681.64	84.2904	1,681.64	77.6767	1,681.64	83.7045	1,681.64	78.4236	1,681.64	83.9933	1,681.64	77.221	1,681.64	84.1935	1,681.64	73.3707	1,681.64	83.7168	1,681.64	71.4399	1,681.64	82.9761	1,681.64	72.7142	1,681.64	82.64	1,681.64	71.4399	1,681.64	82.9761	1,681.64	73.3707	1,681.64	83.7168	1,681.64	77.221	1,681.64	84.1935	1,681.64	78.4236	1,681.64	83.9933	1,681.64	77.6767	1,681.64	83.7045	1,681.64	79.1772	1,681.64	84.2904	1,681.64	82.5826	1,681.64	85.3963	1,681.64	85.2588	1,681.64	86.1574	1,681.64	86.2635
1,740.97	86.6968	1,740.97	85.3064	1,740.97	86.4573	1,740.97	82.0555	1,740.97	85.3147	1,740.97	78.7748	1,740.97	84.2414	1,740.97	78.489	1,740.97	83.8067	1,740.97	77.6507	1,740.97	83.8356	1,740.97	74.3136	1,740.97	83.8129	1,740.97	73.8435	1,740.97	83.4897	1,740.97	74.8994	1,740.97	83.044	1,740.97	75.6848	1,740.97	82.8423	1,740.97	74.8994	1,740.97	83.044	1,740.97	73.8435	1,740.97	83.4897	1,740.97	74.3136	1,740.97	83.8129	1,740.97	77.6507	1,740.97	83.8356	1,740.97	78.489	1,740.97	83.8067	1,740.97	78.7748	1,740.97	84.2414	1,740.97	82.0555	1,740.97	85.3147	1,740.97	85.3064	1,740.97	86.4573	1,740.97	86.6968
1,802.49	86.2822	1,802.49	85.1503	1,802.49	86.0371	1,802.49	82.5279	1,802.49	85.1919	1,802.49	79.4472	1,802.49	84.3091	1,802.49	76.8564	1,802.49	83.5571	1,802.49	74.9703	1,802.49	83.1509	1,802.49	73.7656	1,802.49	83.0173	1,802.49	71.9213	1,802.49	82.8986	1,802.49	69.2949	1,802.49	82.6442	1,802.49	67.9767	1,802.49	82.4824	1,802.49	69.2949	1,802.49	82.6442	1,802.49	71.9213	1,802.49	82.8986	1,802.49	73.7656	1,802.49	83.0173	1,802.49	74.9703	1,802.49	83.1509	1,802.49	76.8564	1,802.49	83.5571	1,802.49	79.4472	1,802.49	84.3091	1,802.49	82.5279	1,802.49	85.1919	1,802.49	85.1503	1,802.49	86.0371	1,802.49	86.2822
1,866.21	85.1929	1,866.21	84.6069	1,866.21	85.2621	1,866.21	82.8285	1,866.21	84.9956	1,866.21	79.9721	1,866.21	84.303	1,866.21	77.1537	1,866.21	83.403	1,866.21	74.1979	1,866.21	82.8175	1,866.21	69.9515	1,866.21	82.658	1,866.21	67.5504	1,866.21	82.4653	1,866.21	68.9671	1,866.21	82.1529	1,866.21	69.6795	1,866.21	82.0114	1,866.21	68.9671	1,866.21	82.1529	1,866.21	67.5504	1,866.21	82.4653	1,866.21	69.9515	1,866.21	82.658	1,866.21	74.1979	1,866.21	82.8175	1,866.21	77.1537	1,866.21	83.403	1,866.21	79.9721	1,866.21	84.303	1,866.21	82.8285	1,866.21	84.9956	1,866.21	84.6069	1,866.21	85.2621	1,866.21	85.1929
1,931.76	84.6154	1,931.76	84.0326	1,931.76	84.4934	1,931.76	82.123	1,931.76	84.3316	1,931.76	79.6405	1,931.76	84.0762	1,931.76	78.3652	1,931.76	83.4408	1,931.76	75.2156	1,931.76	83.087	1,931.76	67.878	1,931.76	82.9522	1,931.76	67.8279	1,931.76	82.4355	1,931.76	69.8695	1,931.76	81.9014	1,931.76	70.9963	1,931.76	81.7406	1,931.76	69.8695	1,931.76	81.9014	1,931.76	67.8279	1,931.76	82.4355	1,931.76	67.878	1,931.76	82.9522	1,931.76	75.2156	1,931.76	83.087	1,931.76	78.3652	1,931.76	83.4408	1,931.76	79.6405	1,931.76	84.0762	1,931.76	82.123	1,931.76	84.3316	1,931.76	84.0326	1,931.76	84.4934	1,931.76	84.6154
1,999.88	85.5015	1,999.88	83.8526	1,999.88	85.2528	1,999.88	81.1587	1,999.88	84.2686	1,999.88	79.7142	1,999.88	83.9568	1,999.88	79.0539	1,999.88	83.4113	1,999.88	75.4446	1,999.88	82.9053	1,999.88	68.7431	1,999.88	83.0941	1,999.88	71.935	1,999.88	83.1157	1,999.88	72.7364	1,999.88	82.4659	1,999.88	71.5124	1,999.88	82.0191	1,999.88	72.7364	1,999.88	82.4659	1,999.88	71.935	1,999.88	83.1157	1,999.88	68.7431	1,999.88	83.0941	1,999.88	75.4446	1,999.88	82.9053	1,999.88	79.0539	1,999.88	83.4113	1,999.88	79.7142	1,999.88	83.9568	1,999.88	81.1587	1,999.88	84.2686	1,999.88	83.8526	1,999.88	85.2528	1,999.88	85.5015
2,070.56	86.116	2,070.56	83.6731	2,070.56	86.3277	2,070.56	79.918	2,070.56	84.9586	2,070.56	79.5004	2,070.56	83.8313	2,070.56	79.9939	2,070.56	83.4486	2,070.56	76.9633	2,070.56	83.1868	2,070.56	71.405	2,070.56	83.1575	2,070.56	72.5154	2,070.56	83.4317	2,070.56	77.067	2,070.56	83.6795	2,070.56	78.8877	2,070.56	83.7259	2,070.56	77.067	2,070.56	83.6795	2,070.56	72.5154	2,070.56	83.4317	2,070.56	71.405	2,070.56	83.1575	2,070.56	76.9633	2,070.56	83.1868	2,070.56	79.9939	2,070.56	83.4486	2,070.56	79.5004	2,070.56	83.8313	2,070.56	79.918	2,070.56	84.9586	2,070.56	83.6731	2,070.56	86.3277	2,070.56	86.116
2,143.43	86.0993	2,143.43	83.7768	2,143.43	87.1791	2,143.43	81.9634	2,143.43	85.8265	2,143.43	80.4245	2,143.43	84.1118	2,143.43	79.0984	2,143.43	83.2829	2,143.43	77.1362	2,143.43	82.3668	2,143.43	74.8462	2,143.43	82.2609	2,143.43	75.2987	2,143.43	83.1487	2,143.43	76.124	2,143.43	84.0952	2,143.43	76.3787	2,143.43	84.4576	2,143.43	76.124	2,143.43	84.0952	2,143.43	75.2987	2,143.43	83.1487	2,143.43	74.8462	2,143.43	82.2609	2,143.43	77.1362	2,143.43	82.3668	2,143.43	79.0984	2,143.43	83.2829	2,143.43	80.4245	2,143.43	84.1118	2,143.43	81.9634	2,143.43	85.8265	2,143.43	83.7768	2,143.43	87.1791	2,143.43	86.0993
2,219.24	85.1761	2,219.24	83.4825	2,219.24	86.8249	2,219.24	82.7495	2,219.24	85.8648	2,219.24	80.6932	2,219.24	84.9257	2,219.24	78.9224	2,219.24	84.3508	2,219.24	77.4031	2,219.24	82.8827	2,219.24	75.3997	2,219.24	81.8702	2,219.24	76.9465	2,219.24	81.7469	2,219.24	78.3746	2,219.24	82.5383	2,219.24	78.2959	2,219.24	83.2653	2,219.24	78.3746	2,219.24	82.5383	2,219.24	76.9465	2,219.24	81.7469	2,219.24	75.3997	2,219.24	81.8702	2,219.24	77.4031	2,219.24	82.8827	2,219.24	78.9224	2,219.24	84.3508	2,219.24	80.6932	2,219.24	84.9257	2,219.24	82.7495	2,219.24	85.8648	2,219.24	83.4825	2,219.24	86.8249	2,219.24	85.1761
2,297.24	84.0612	2,297.24	81.8127	2,297.24	86.217	2,297.24	82.8875	2,297.24	85.238	2,297.24	82.0654	2,297.24	84.7522	2,297.24	79.8424	2,297.24	84.7284	2,297.24	78.3111	2,297.24	83.7538	2,297.24	78.4448	2,297.24	82.7018	2,297.24	79.3542	2,297.24	81.641	2,297.24	79.9646	2,297.24	80.769	2,297.24	80.2019	2,297.24	80.5746	2,297.24	79.9646	2,297.24	80.769	2,297.24	79.3542	2,297.24	81.641	2,297.24	78.4448	2,297.24	82.7018	2,297.24	78.3111	2,297.24	83.7538	2,297.24	79.8424	2,297.24	84.7284	2,297.24	82.0654	2,297.24	84.7522	2,297.24	82.8875	2,297.24	85.238	2,297.24	81.8127	2,297.24	86.217	2,297.24	84.0612
2,378.54	84.6346	2,378.54	81.0527	2,378.54	85.7723	2,378.54	82.8092	2,378.54	84.3896	2,378.54	82.5692	2,378.54	84.5458	2,378.54	80.7086	2,378.54	84.7527	2,378.54	78.784	2,378.54	84.5354	2,378.54	79.3368	2,378.54	84.0286	2,378.54	81.8189	2,378.54	83.602	2,378.54	83.043	2,378.54	82.8049	2,378.54	83.2236	2,378.54	82.1862	2,378.54	83.043	2,378.54	82.8049	2,378.54	81.8189	2,378.54	83.602	2,378.54	79.3368	2,378.54	84.0286	2,378.54	78.784	2,378.54	84.5354	2,378.54	80.7086	2,378.54	84.7527	2,378.54	82.5692	2,378.54	84.5458	2,378.54	82.8092	2,378.54	84.3896	2,378.54	81.0527	2,378.54	85.7723	2,378.54	84.6346
2,462.4	86.1554	2,462.4	81.7855	2,462.4	86.5917	2,462.4	82.7656	2,462.4	84.5382	2,462.4	83.0201	2,462.4	83.3332	2,462.4	80.7305	2,462.4	83.2313	2,462.4	79.0737	2,462.4	83.2395	2,462.4	79.1322	2,462.4	83.2743	2,462.4	81.7223	2,462.4	84.3606	2,462.4	82.1373	2,462.4	85.1073	2,462.4	82.861	2,462.4	85.086	2,462.4	82.1373	2,462.4	85.1073	2,462.4	81.7223	2,462.4	84.3606	2,462.4	79.1322	2,462.4	83.2743	2,462.4	79.0737	2,462.4	83.2395	2,462.4	80.7305	2,462.4	83.2313	2,462.4	83.0201	2,462.4	83.3332	2,462.4	82.7656	2,462.4	84.5382	2,462.4	81.7855	2,462.4	86.5917	2,462.4	86.1554
2,549.19	86.0325	2,549.19	82.9506	2,549.19	87.6074	2,549.19	83.9438	2,549.19	86.1712	2,549.19	82.4633	2,549.19	82.8252	2,549.19	82.0358	2,549.19	82.8455	2,549.19	82.3951	2,549.19	82.5924	2,549.19	77.7784	2,549.19	81.9005	2,549.19	80.2269	2,549.19	83.5264	2,549.19	82.889	2,549.19	85.2193	2,549.19	82.2122	2,549.19	85.7877	2,549.19	82.889	2,549.19	85.2193	2,549.19	80.2269	2,549.19	83.5264	2,549.19	77.7784	2,549.19	81.9005	2,549.19	82.3951	2,549.19	82.5924	2,549.19	82.0358	2,549.19	82.8455	2,549.19	82.4633	2,549.19	82.8252	2,549.19	83.9438	2,549.19	86.1712	2,549.19	82.9506	2,549.19	87.6074	2,549.19	86.0325
2,638.92	85.3678	2,638.92	83.3425	2,638.92	86.8862	2,638.92	83.9172	2,638.92	87.26	2,638.92	83.5157	2,638.92	84.8776	2,638.92	83.2106	2,638.92	83.507	2,638.92	82.84	2,638.92	82.6246	2,638.92	80.3487	2,638.92	80.7383	2,638.92	79.9205	2,638.92	81.1801	2,638.92	82.3638	2,638.92	82.9044	2,638.92	84.139	2,638.92	83.2002	2,638.92	82.3638	2,638.92	82.9044	2,638.92	79.9205	2,638.92	81.1801	2,638.92	80.3487	2,638.92	80.7383	2,638.92	82.84	2,638.92	82.6246	2,638.92	83.2106	2,638.92	83.507	2,638.92	83.5157	2,638.92	84.8776	2,638.92	83.9172	2,638.92	87.26	2,638.92	83.3425	2,638.92	86.8862	2,638.92	85.3678
2,731.93	84.7185	2,731.93	82.6651	2,731.93	85.8556	2,731.93	83.4439	2,731.93	87.0529	2,731.93	84.5372	2,731.93	85.4248	2,731.93	83.4381	2,731.93	84.356	2,731.93	81.8297	2,731.93	83.952	2,731.93	80.3932	2,731.93	83.1905	2,731.93	82.1227	2,731.93	82.7489	2,731.93	82.6704	2,731.93	83.4992	2,731.93	82.2094	2,731.93	83.8189	2,731.93	82.6704	2,731.93	83.4992	2,731.93	82.1227	2,731.93	82.7489	2,731.93	80.3932	2,731.93	83.1905	2,731.93	81.8297	2,731.93	83.952	2,731.93	83.4381	2,731.93	84.356	2,731.93	84.5372	2,731.93	85.4248	2,731.93	83.4439	2,731.93	87.0529	2,731.93	82.6651	2,731.93	85.8556	2,731.93	84.7185
2,828.25	85.2686	2,828.25	83.117	2,828.25	86.3617	2,828.25	82.7676	2,828.25	87.0258	2,828.25	85.5325	2,828.25	85.1521	2,828.25	83.2344	2,828.25	84.1169	2,828.25	82.8618	2,828.25	84.1335	2,828.25	82.5471	2,828.25	83.6658	2,828.25	83.1453	2,828.25	83.4865	2,828.25	83.9695	2,828.25	84.2919	2,828.25	84.4056	2,828.25	84.4748	2,828.25	83.9695	2,828.25	84.2919	2,828.25	83.1453	2,828.25	83.4865	2,828.25	82.5471	2,828.25	83.6658	2,828.25	82.8618	2,828.25	84.1335	2,828.25	83.2344	2,828.25	84.1169	2,828.25	85.5325	2,828.25	85.1521	2,828.25	82.7676	2,828.25	87.0258	2,828.25	83.117	2,828.25	86.3617	2,828.25	85.2686
2,928.22	85.1404	2,928.22	85.5347	2,928.22	86.9981	2,928.22	83.0641	2,928.22	88.0645	2,928.22	85.6561	2,928.22	85.3415	2,928.22	84.0828	2,928.22	83.3102	2,928.22	84.5772	2,928.22	83.656	2,928.22	83.9672	2,928.22	81.6453	2,928.22	83.4971	2,928.22	82.6174	2,928.22	85.7663	2,928.22	84.4945	2,928.22	86.6632	2,928.22	84.8901	2,928.22	85.7663	2,928.22	84.4945	2,928.22	83.4971	2,928.22	82.6174	2,928.22	83.9672	2,928.22	81.6453	2,928.22	84.5772	2,928.22	83.656	2,928.22	84.0828	2,928.22	83.3102	2,928.22	85.6561	2,928.22	85.3415	2,928.22	83.0641	2,928.22	88.0645	2,928.22	85.5347	2,928.22	86.9981	2,928.22	85.1404
3,031.49	85.5145	3,031.49	86.4999	3,031.49	87.1882	3,031.49	83.9668	3,031.49	88.7249	3,031.49	86.0865	3,031.49	86.2115	3,031.49	84.2303	3,031.49	83.1098	3,031.49	83.6229	3,031.49	83.469	3,031.49	81.7867	3,031.49	82.5618	3,031.49	84.4412	3,031.49	81.3866	3,031.49	85.4786	3,031.49	82.4236	3,031.49	84.6044	3,031.49	83.5261	3,031.49	85.4786	3,031.49	82.4236	3,031.49	84.4412	3,031.49	81.3866	3,031.49	81.7867	3,031.49	82.5618	3,031.49	83.6229	3,031.49	83.469	3,031.49	84.2303	3,031.49	83.1098	3,031.49	86.0865	3,031.49	86.2115	3,031.49	83.9668	3,031.49	88.7249	3,031.49	86.4999	3,031.49	87.1882	3,031.49	85.5145
3,138.43	85.3979	3,138.43	87.2468	3,138.43	86.8451	3,138.43	83.8483	3,138.43	88.2305	3,138.43	85.8262	3,138.43	85.7054	3,138.43	85.0707	3,138.43	83.248	3,138.43	84.2263	3,138.43	83.1408	3,138.43	84.4516	3,138.43	83.0338	3,138.43	83.1837	3,138.43	81.7561	3,138.43	84.0411	3,138.43	83.0254	3,138.43	86.4828	3,138.43	83.8759	3,138.43	84.0411	3,138.43	83.0254	3,138.43	83.1837	3,138.43	81.7561	3,138.43	84.4516	3,138.43	83.0338	3,138.43	84.2263	3,138.43	83.1408	3,138.43	85.0707	3,138.43	83.248	3,138.43	85.8262	3,138.43	85.7054	3,138.43	83.8483	3,138.43	88.2305	3,138.43	87.2468	3,138.43	86.8451	3,138.43	85.3979
3,249.02	85.7612	3,249.02	87.1477	3,249.02	87.2896	3,249.02	83.1378	3,249.02	88.1658	3,249.02	86.4458	3,249.02	86.0748	3,249.02	85.4852	3,249.02	82.8438	3,249.02	84.5979	3,249.02	83.0318	3,249.02	82.6335	3,249.02	82.467	3,249.02	84.0736	3,249.02	81.4279	3,249.02	86.9691	3,249.02	83.4047	3,249.02	86.0286	3,249.02	84.3184	3,249.02	86.9691	3,249.02	83.4047	3,249.02	84.0736	3,249.02	81.4279	3,249.02	82.6335	3,249.02	82.467	3,249.02	84.5979	3,249.02	83.0318	3,249.02	85.4852	3,249.02	82.8438	3,249.02	86.4458	3,249.02	86.0748	3,249.02	83.1378	3,249.02	88.1658	3,249.02	87.1477	3,249.02	87.2896	3,249.02	85.7612
3,363.65	86.5071	3,363.65	86.9048	3,363.65	87.3367	3,363.65	82.8257	3,363.65	88.597	3,363.65	85.3645	3,363.65	87.1614	3,363.65	85.9851	3,363.65	82.5309	3,363.65	84.4066	3,363.65	82.6485	3,363.65	84.0079	3,363.65	82.3341	3,363.65	85.0054	3,363.65	79.8736	3,363.65	84.9441	3,363.65	82.0193	3,363.65	86.1386	3,363.65	84.1211	3,363.65	84.9441	3,363.65	82.0193	3,363.65	85.0054	3,363.65	79.8736	3,363.65	84.0079	3,363.65	82.3341	3,363.65	84.4066	3,363.65	82.6485	3,363.65	85.9851	3,363.65	82.5309	3,363.65	85.3645	3,363.65	87.1614	3,363.65	82.8257	3,363.65	88.597	3,363.65	86.9048	3,363.65	87.3367	3,363.65	86.5071
3,482.3	87.3902	3,482.3	87.2457	3,482.3	86.6956	3,482.3	83.4581	3,482.3	88.3452	3,482.3	84.7635	3,482.3	87.7861	3,482.3	86.3035	3,482.3	83.7712	3,482.3	83.8732	3,482.3	82.6924	3,482.3	84.2594	3,482.3	83.1846	3,482.3	82.3228	3,482.3	78.8595	3,482.3	85.2999	3,482.3	79.9369	3,482.3	86.0972	3,482.3	81.6261	3,482.3	85.2999	3,482.3	79.9369	3,482.3	82.3228	3,482.3	78.8595	3,482.3	84.2594	3,482.3	83.1846	3,482.3	83.8732	3,482.3	82.6924	3,482.3	86.3035	3,482.3	83.7712	3,482.3	84.7635	3,482.3	87.7861	3,482.3	83.4581	3,482.3	88.3452	3,482.3	87.2457	3,482.3	86.6956	3,482.3	87.3902
3,604.98	88.5245	3,604.98	86.253	3,604.98	86.1326	3,604.98	85.7827	3,604.98	86.5324	3,604.98	85.1045	3,604.98	88.3147	3,604.98	85.4737	3,604.98	85.1067	3,604.98	85.1879	3,604.98	81.5973	3,604.98	83.2005	3,604.98	82.6634	3,604.98	84.4734	3,604.98	79.9676	3,604.98	85.3425	3,604.98	78.3811	3,604.98	84.0935	3,604.98	79.1856	3,604.98	85.3425	3,604.98	78.3811	3,604.98	84.4734	3,604.98	79.9676	3,604.98	83.2005	3,604.98	82.6634	3,604.98	85.1879	3,604.98	81.5973	3,604.98	85.4737	3,604.98	85.1067	3,604.98	85.1045	3,604.98	88.3147	3,604.98	85.7827	3,604.98	86.5324	3,604.98	86.253	3,604.98	86.1326	3,604.98	88.5245
3,732.06	89.1021	3,732.06	85.952	3,732.06	87.8492	3,732.06	85.4959	3,732.06	87.0984	3,732.06	84.2234	3,732.06	87.2271	3,732.06	86.7754	3,732.06	85.0234	3,732.06	83.7824	3,732.06	83.1279	3,732.06	83.4759	3,732.06	83.8853	3,732.06	82.4648	3,732.06	81.5996	3,732.06	83.5189	3,732.06	78.6249	3,732.06	85.1439	3,732.06	81.0101	3,732.06	83.5189	3,732.06	78.6249	3,732.06	82.4648	3,732.06	81.5996	3,732.06	83.4759	3,732.06	83.8853	3,732.06	83.7824	3,732.06	83.1279	3,732.06	86.7754	3,732.06	85.0234	3,732.06	84.2234	3,732.06	87.2271	3,732.06	85.4959	3,732.06	87.0984	3,732.06	85.952	3,732.06	87.8492	3,732.06	89.1021
3,863.89	88.5829	3,863.89	85.7369	3,863.89	87.6798	3,863.89	85.9093	3,863.89	87.5025	3,863.89	84.277	3,863.89	87.6531	3,863.89	86.6171	3,863.89	84.2931	3,863.89	83.4205	3,863.89	83.2171	3,863.89	82.6302	3,863.89	83.8443	3,863.89	83.3298	3,863.89	80.0088	3,863.89	85.7654	3,863.89	71.6948	3,863.89	83.9632	3,863.89	79.4485	3,863.89	85.7654	3,863.89	71.6948	3,863.89	83.3298	3,863.89	80.0088	3,863.89	82.6302	3,863.89	83.8443	3,863.89	83.4205	3,863.89	83.2171	3,863.89	86.6171	3,863.89	84.2931	3,863.89	84.277	3,863.89	87.6531	3,863.89	85.9093	3,863.89	87.5025	3,863.89	85.7369	3,863.89	87.6798	3,863.89	88.5829
4,000.12	87.6424	4,000.12	84.1473	4,000.12	86.8153	4,000.12	86.7162	4,000.12	85.8337	4,000.12	82.9161	4,000.12	88.5822	4,000.12	86.1572	4,000.12	86.6553	4,000.12	82.0338	4,000.12	82.0142	4,000.12	82.3993	4,000.12	83.1597	4,000.12	83.6617	4,000.12	81.0978	4,000.12	83.1766	4,000.12	70.6367	4,000.12	84.2285	4,000.12	73.4953	4,000.12	83.1766	4,000.12	70.6367	4,000.12	83.6617	4,000.12	81.0978	4,000.12	82.3993	4,000.12	83.1597	4,000.12	82.0338	4,000.12	82.0142	4,000.12	86.1572	4,000.12	86.6553	4,000.12	82.9161	4,000.12	88.5822	4,000.12	86.7162	4,000.12	85.8337	4,000.12	84.1473	4,000.12	86.8153	4,000.12	87.6424
4,141.11	87.5574	4,141.11	86.0827	4,141.11	88.1982	4,141.11	86.6791	4,141.11	84.9809	4,141.11	83.6401	4,141.11	87.2132	4,141.11	85.5446	4,141.11	87.673	4,141.11	83.1299	4,141.11	82.1338	4,141.11	82.7317	4,141.11	83.0123	4,141.11	81.4025	4,141.11	80.866	4,141.11	84.3256	4,141.11	72.0846	4,141.11	81.6128	4,141.11	73.2881	4,141.11	84.3256	4,141.11	72.0846	4,141.11	81.4025	4,141.11	80.866	4,141.11	82.7317	4,141.11	83.0123	4,141.11	83.1299	4,141.11	82.1338	4,141.11	85.5446	4,141.11	87.673	4,141.11	83.6401	4,141.11	87.2132	4,141.11	86.6791	4,141.11	84.9809	4,141.11	86.0827	4,141.11	88.1982	4,141.11	87.5574
4,287.23	87.0589	4,287.23	86.3269	4,287.23	87.3848	4,287.23	86.305	4,287.23	85.9181	4,287.23	83.081	4,287.23	86.9554	4,287.23	84.4337	4,287.23	87.0422	4,287.23	83.914	4,287.23	82.3248	4,287.23	80.0647	4,287.23	83.8851	4,287.23	83.6675	4,287.23	82.1894	4,287.23	81.1138	4,287.23	76.0431	4,287.23	84.3383	4,287.23	72.3664	4,287.23	81.1138	4,287.23	76.0431	4,287.23	83.6675	4,287.23	82.1894	4,287.23	80.0647	4,287.23	83.8851	4,287.23	83.914	4,287.23	82.3248	4,287.23	84.4337	4,287.23	87.0422	4,287.23	83.081	4,287.23	86.9554	4,287.23	86.305	4,287.23	85.9181	4,287.23	86.3269	4,287.23	87.3848	4,287.23	87.0589
4,438.11	86.7975	4,438.11	86.2906	4,438.11	87.371	4,438.11	85.6162	4,438.11	85.2253	4,438.11	82.2411	4,438.11	87.4188	4,438.11	85.3023	4,438.11	86.3255	4,438.11	83.3891	4,438.11	83.5199	4,438.11	80.7355	4,438.11	82.2471	4,438.11	82.213	4,438.11	81.3833	4,438.11	84.9716	4,438.11	74.6786	4,438.11	79.5659	4,438.11	69.9608	4,438.11	84.9716	4,438.11	74.6786	4,438.11	82.213	4,438.11	81.3833	4,438.11	80.7355	4,438.11	82.2471	4,438.11	83.3891	4,438.11	83.5199	4,438.11	85.3023	4,438.11	86.3255	4,438.11	82.2411	4,438.11	87.4188	4,438.11	85.6162	4,438.11	85.2253	4,438.11	86.2906	4,438.11	87.371	4,438.11	86.7975
4,594.85	85.6783	4,594.85	86.0081	4,594.85	87.1423	4,594.85	83.5084	4,594.85	86.4287	4,594.85	83.1956	4,594.85	86.278	4,594.85	85.2182	4,594.85	87.3707	4,594.85	83.8964	4,594.85	81.8157	4,594.85	80.0098	4,594.85	82.3999	4,594.85	84.5599	4,594.85	82.126	4,594.85	82.3884	4,594.85	78.3249	4,594.85	83.9039	4,594.85	80.4005	4,594.85	82.3884	4,594.85	78.3249	4,594.85	84.5599	4,594.85	82.126	4,594.85	80.0098	4,594.85	82.3999	4,594.85	83.8964	4,594.85	81.8157	4,594.85	85.2182	4,594.85	87.3707	4,594.85	83.1956	4,594.85	86.278	4,594.85	83.5084	4,594.85	86.4287	4,594.85	86.0081	4,594.85	87.1423	4,594.85	85.6783
4,756.71	85.3868	4,756.71	86.3454	4,756.71	85.6208	4,756.71	83.8205	4,756.71	87.3206	4,756.71	84.321	4,756.71	86.1483	4,756.71	83.8683	4,756.71	86.3123	4,756.71	84.3105	4,756.71	83.8635	4,756.71	81.9433	4,756.71	81.8108	4,756.71	82.2101	4,756.71	82.9332	4,756.71	83.04	4,756.71	77.474	4,756.71	78.536	4,756.71	80.4211	4,756.71	83.04	4,756.71	77.474	4,756.71	82.2101	4,756.71	82.9332	4,756.71	81.9433	4,756.71	81.8108	4,756.71	84.3105	4,756.71	83.8635	4,756.71	83.8683	4,756.71	86.3123	4,756.71	84.321	4,756.71	86.1483	4,756.71	83.8205	4,756.71	87.3206	4,756.71	86.3454	4,756.71	85.6208	4,756.71	85.3868
4,924.44	86.0364	4,924.44	85.6568	4,924.44	85.6796	4,924.44	83.0469	4,924.44	85.9818	4,924.44	84.5438	4,924.44	85.7673	4,924.44	83.7924	4,924.44	86.424	4,924.44	84.3938	4,924.44	82.7355	4,924.44	81.0127	4,924.44	81.0281	4,924.44	82.7939	4,924.44	82.6649	4,924.44	79.9907	4,924.44	81.568	4,924.44	78.8173	4,924.44	82.7375	4,924.44	79.9907	4,924.44	81.568	4,924.44	82.7939	4,924.44	82.6649	4,924.44	81.0127	4,924.44	81.0281	4,924.44	84.3938	4,924.44	82.7355	4,924.44	83.7924	4,924.44	86.424	4,924.44	84.5438	4,924.44	85.7673	4,924.44	83.0469	4,924.44	85.9818	4,924.44	85.6568	4,924.44	85.6796	4,924.44	86.0364
5,098.39	85.5977	5,098.39	85.5865	5,098.39	86.5993	5,098.39	84.2156	5,098.39	86.9497	5,098.39	84.9747	5,098.39	85.995	5,098.39	82.237	5,098.39	86.1352	5,098.39	85.2022	5,098.39	82.0663	5,098.39	79.6354	5,098.39	80.0491	5,098.39	82.6078	5,098.39	83.9184	5,098.39	79.7525	5,098.39	82.5477	5,098.39	76.3086	5,098.39	84.4204	5,098.39	79.7525	5,098.39	82.5477	5,098.39	82.6078	5,098.39	83.9184	5,098.39	79.6354	5,098.39	80.0491	5,098.39	85.2022	5,098.39	82.0663	5,098.39	82.237	5,098.39	86.1352	5,098.39	84.9747	5,098.39	85.995	5,098.39	84.2156	5,098.39	86.9497	5,098.39	85.5865	5,098.39	86.5993	5,098.39	85.5977
5,278.2	86.1166	5,278.2	84.8545	5,278.2	85.7617	5,278.2	83.6935	5,278.2	86.7496	5,278.2	84.4984	5,278.2	85.9792	5,278.2	82.0289	5,278.2	84.788	5,278.2	85.0411	5,278.2	83.9608	5,278.2	79.5042	5,278.2	79.4878	5,278.2	83.2834	5,278.2	84.583	5,278.2	78.7835	5,278.2	83.5151	5,278.2	76.6864	5,278.2	86.4442	5,278.2	78.7835	5,278.2	83.5151	5,278.2	83.2834	5,278.2	84.583	5,278.2	79.5042	5,278.2	79.4878	5,278.2	85.0411	5,278.2	83.9608	5,278.2	82.0289	5,278.2	84.788	5,278.2	84.4984	5,278.2	85.9792	5,278.2	83.6935	5,278.2	86.7496	5,278.2	84.8545	5,278.2	85.7617	5,278.2	86.1166
5,464.23	86.3716	5,464.23	85.2395	5,464.23	87.0258	5,464.23	84.7053	5,464.23	86.4482	5,464.23	84.4121	5,464.23	85.7672	5,464.23	81.945	5,464.23	84.8193	5,464.23	85.2095	5,464.23	82.3709	5,464.23	78.9587	5,464.23	80.985	5,464.23	83.7321	5,464.23	82.5772	5,464.23	76.2511	5,464.23	87.0531	5,464.23	70.8109	5,464.23	87.7819	5,464.23	76.2511	5,464.23	87.0531	5,464.23	83.7321	5,464.23	82.5772	5,464.23	78.9587	5,464.23	80.985	5,464.23	85.2095	5,464.23	82.3709	5,464.23	81.945	5,464.23	84.8193	5,464.23	84.4121	5,464.23	85.7672	5,464.23	84.7053	5,464.23	86.4482	5,464.23	85.2395	5,464.23	87.0258	5,464.23	86.3716
5,656.86	86.0076	5,656.86	84.5457	5,656.86	87.8172	5,656.86	85.0983	5,656.86	86.8579	5,656.86	83.8195	5,656.86	85.1287	5,656.86	81.7285	5,656.86	84.2447	5,656.86	84.4745	5,656.86	83.5752	5,656.86	81.0902	5,656.86	78.0665	5,656.86	82.7609	5,656.86	84.2794	5,656.86	73.821	5,656.86	87.1762	5,656.86	69.5037	5,656.86	88.2255	5,656.86	73.821	5,656.86	87.1762	5,656.86	82.7609	5,656.86	84.2794	5,656.86	81.0902	5,656.86	78.0665	5,656.86	84.4745	5,656.86	83.5752	5,656.86	81.7285	5,656.86	84.2447	5,656.86	83.8195	5,656.86	85.1287	5,656.86	85.0983	5,656.86	86.8579	5,656.86	84.5457	5,656.86	87.8172	5,656.86	86.0076
5,856.45	86.0195	5,856.45	85.0026	5,856.45	87.3047	5,856.45	85.1972	5,856.45	87.0914	5,856.45	83.1606	5,856.45	85.003	5,856.45	81.7678	5,856.45	83.4398	5,856.45	84.3804	5,856.45	82.4177	5,856.45	81.3391	5,856.45	79.607	5,856.45	82.4197	5,856.45	83.0032	5,856.45	75.6429	5,856.45	88.1156	5,856.45	75.4772	5,856.45	89.6488	5,856.45	75.6429	5,856.45	88.1156	5,856.45	82.4197	5,856.45	83.0032	5,856.45	81.3391	5,856.45	79.607	5,856.45	84.3804	5,856.45	82.4177	5,856.45	81.7678	5,856.45	83.4398	5,856.45	83.1606	5,856.45	85.003	5,856.45	85.1972	5,856.45	87.0914	5,856.45	85.0026	5,856.45	87.3047	5,856.45	86.0195
6,062.99	86.8827	6,062.99	85.707	6,062.99	87.6844	6,062.99	86.3898	6,062.99	87.0031	6,062.99	82.1943	6,062.99	85.0903	6,062.99	82.439	6,062.99	83.2017	6,062.99	84.4626	6,062.99	81.4339	6,062.99	82.0946	6,062.99	79.8258	6,062.99	82.4299	6,062.99	82.2517	6,062.99	75.6283	6,062.99	88.8173	6,062.99	82.8051	6,062.99	90.0448	6,062.99	75.6283	6,062.99	88.8173	6,062.99	82.4299	6,062.99	82.2517	6,062.99	82.0946	6,062.99	79.8258	6,062.99	84.4626	6,062.99	81.4339	6,062.99	82.439	6,062.99	83.2017	6,062.99	82.1943	6,062.99	85.0903	6,062.99	86.3898	6,062.99	87.0031	6,062.99	85.707	6,062.99	87.6844	6,062.99	86.8827
6,276.86	87.1421	6,276.86	85.5509	6,276.86	87.7911	6,276.86	85.4511	6,276.86	85.9677	6,276.86	82.9978	6,276.86	85.3123	6,276.86	83.1655	6,276.86	82.0105	6,276.86	83.4644	6,276.86	80.9072	6,276.86	82.7225	6,276.86	79.3799	6,276.86	80.3859	6,276.86	82.6822	6,276.86	76.6607	6,276.86	88.5157	6,276.86	85.8864	6,276.86	90.7409	6,276.86	76.6607	6,276.86	88.5157	6,276.86	80.3859	6,276.86	82.6822	6,276.86	82.7225	6,276.86	79.3799	6,276.86	83.4644	6,276.86	80.9072	6,276.86	83.1655	6,276.86	82.0105	6,276.86	82.9978	6,276.86	85.3123	6,276.86	85.4511	6,276.86	85.9677	6,276.86	85.5509	6,276.86	87.7911	6,276.86	87.1421
6,498.05	86.9374	6,498.05	85.0283	6,498.05	87.389	6,498.05	85.1505	6,498.05	86.487	6,498.05	83.9154	6,498.05	85.7903	6,498.05	83.6667	6,498.05	82.7075	6,498.05	81.6153	6,498.05	81.8417	6,498.05	83.2336	6,498.05	78.0203	6,498.05	77.4424	6,498.05	81.5148	6,498.05	78.2454	6,498.05	88.8783	6,498.05	87.2681	6,498.05	91.8699	6,498.05	78.2454	6,498.05	88.8783	6,498.05	77.4424	6,498.05	81.5148	6,498.05	83.2336	6,498.05	78.0203	6,498.05	81.6153	6,498.05	81.8417	6,498.05	83.6667	6,498.05	82.7075	6,498.05	83.9154	6,498.05	85.7903	6,498.05	85.1505	6,498.05	86.487	6,498.05	85.0283	6,498.05	87.389	6,498.05	86.9374
6,727.29	87.4219	6,727.29	85.26	6,727.29	87.3704	6,727.29	85.9168	6,727.29	86.0822	6,727.29	84.9106	6,727.29	84.5494	6,727.29	82.3999	6,727.29	83.9195	6,727.29	81.2497	6,727.29	80.4207	6,727.29	82.6417	6,727.29	77.0457	6,727.29	76.2895	6,727.29	81.7648	6,727.29	79.6543	6,727.29	90.1839	6,727.29	88.618	6,727.29	92.7958	6,727.29	79.6543	6,727.29	90.1839	6,727.29	76.2895	6,727.29	81.7648	6,727.29	82.6417	6,727.29	77.0457	6,727.29	81.2497	6,727.29	80.4207	6,727.29	82.3999	6,727.29	83.9195	6,727.29	84.9106	6,727.29	84.5494	6,727.29	85.9168	6,727.29	86.0822	6,727.29	85.26	6,727.29	87.3704	6,727.29	87.4219
6,964.23	86.883	6,964.23	85.376	6,964.23	87.3436	6,964.23	85.5372	6,964.23	85.8641	6,964.23	84.8152	6,964.23	84.888	6,964.23	81.8665	6,964.23	83.0061	6,964.23	80.4571	6,964.23	80.617	6,964.23	82.4506	6,964.23	76.6054	6,964.23	75.8012	6,964.23	82.8553	6,964.23	79.7919	6,964.23	89.8584	6,964.23	89.1605	6,964.23	93.4933	6,964.23	79.7919	6,964.23	89.8584	6,964.23	75.8012	6,964.23	82.8553	6,964.23	82.4506	6,964.23	76.6054	6,964.23	80.4571	6,964.23	80.617	6,964.23	81.8665	6,964.23	83.0061	6,964.23	84.8152	6,964.23	84.888	6,964.23	85.5372	6,964.23	85.8641	6,964.23	85.376	6,964.23	87.3436	6,964.23	86.883
7,209.96	87.1463	7,209.96	86.2948	7,209.96	86.9999	7,209.96	85.1868	7,209.96	85.8207	7,209.96	85.0611	7,209.96	85.2946	7,209.96	82.3561	7,209.96	83.4366	7,209.96	79.115	7,209.96	80.2891	7,209.96	81.833	7,209.96	75.8129	7,209.96	73.9197	7,209.96	81.8235	7,209.96	83.0071	7,209.96	89.9506	7,209.96	89.3558	7,209.96	93.799	7,209.96	83.0071	7,209.96	89.9506	7,209.96	73.9197	7,209.96	81.8235	7,209.96	81.833	7,209.96	75.8129	7,209.96	79.115	7,209.96	80.2891	7,209.96	82.3561	7,209.96	83.4366	7,209.96	85.0611	7,209.96	85.2946	7,209.96	85.1868	7,209.96	85.8207	7,209.96	86.2948	7,209.96	86.9999	7,209.96	87.1463
7,464.11	87.6899	7,464.11	86.0864	7,464.11	87.8128	7,464.11	85.5873	7,464.11	85.822	7,464.11	85.6161	7,464.11	84.9056	7,464.11	80.9888	7,464.11	83.0674	7,464.11	78.3906	7,464.11	80.0494	7,464.11	81.0633	7,464.11	74.8711	7,464.11	73.0818	7,464.11	82.1909	7,464.11	83.3515	7,464.11	89.4136	7,464.11	89.1383	7,464.11	94.1252	7,464.11	83.3515	7,464.11	89.4136	7,464.11	73.0818	7,464.11	82.1909	7,464.11	81.0633	7,464.11	74.8711	7,464.11	78.3906	7,464.11	80.0494	7,464.11	80.9888	7,464.11	83.0674	7,464.11	85.6161	7,464.11	84.9056	7,464.11	85.5873	7,464.11	85.822	7,464.11	86.0864	7,464.11	87.8128	7,464.11	87.6899
7,727.42	87.2746	7,727.42	86.6624	7,727.42	87.7956	7,727.42	85.5885	7,727.42	85.4863	7,727.42	85.0615	7,727.42	85.2824	7,727.42	81.3683	7,727.42	82.4352	7,727.42	77.9013	7,727.42	80.8256	7,727.42	80.9144	7,727.42	74.4059	7,727.42	73.2027	7,727.42	79.7477	7,727.42	83.0848	7,727.42	88.3659	7,727.42	88.8642	7,727.42	93.3707	7,727.42	83.0848	7,727.42	88.3659	7,727.42	73.2027	7,727.42	79.7477	7,727.42	80.9144	7,727.42	74.4059	7,727.42	77.9013	7,727.42	80.8256	7,727.42	81.3683	7,727.42	82.4352	7,727.42	85.0615	7,727.42	85.2824	7,727.42	85.5885	7,727.42	85.4863	7,727.42	86.6624	7,727.42	87.7956	7,727.42	87.2746
7,999.88	87.8719	7,999.88	87.5747	7,999.88	87.8491	7,999.88	85.3018	7,999.88	86.0671	7,999.88	84.7941	7,999.88	84.5075	7,999.88	81.2966	7,999.88	82.9447	7,999.88	78.1693	7,999.88	80.227	7,999.88	80.4068	7,999.88	74.1244	7,999.88	70.6324	7,999.88	76.8522	7,999.88	83.5317	7,999.88	87.6422	7,999.88	88.3747	7,999.88	93.0592	7,999.88	83.5317	7,999.88	87.6422	7,999.88	70.6324	7,999.88	76.8522	7,999.88	80.4068	7,999.88	74.1244	7,999.88	78.1693	7,999.88	80.227	7,999.88	81.2966	7,999.88	82.9447	7,999.88	84.7941	7,999.88	84.5075	7,999.88	85.3018	7,999.88	86.0671	7,999.88	87.5747	7,999.88	87.8491	7,999.88	87.8719
8,282.23	87.7506	8,282.23	87.5483	8,282.23	87.5453	8,282.23	85.6233	8,282.23	86.7307	8,282.23	84.0101	8,282.23	84.6102	8,282.23	81.3964	8,282.23	82.4963	8,282.23	77.3724	8,282.23	80.349	8,282.23	79.8114	8,282.23	74.0875	8,282.23	65.7877	8,282.23	74.8889	8,282.23	83.0316	8,282.23	86.0095	8,282.23	88.1467	8,282.23	92.0697	8,282.23	83.0316	8,282.23	86.0095	8,282.23	65.7877	8,282.23	74.8889	8,282.23	79.8114	8,282.23	74.0875	8,282.23	77.3724	8,282.23	80.349	8,282.23	81.3964	8,282.23	82.4963	8,282.23	84.0101	8,282.23	84.6102	8,282.23	85.6233	8,282.23	86.7307	8,282.23	87.5483	8,282.23	87.5453	8,282.23	87.7506
8,574.1	88.2091	8,574.1	87.6918	8,574.1	87.5123	8,574.1	85.7385	8,574.1	86.3983	8,574.1	84.1185	8,574.1	84.5225	8,574.1	80.1205	8,574.1	83.1302	8,574.1	75.8483	8,574.1	79.9098	8,574.1	79.1861	8,574.1	76.8537	8,574.1	64.4774	8,574.1	71.5695	8,574.1	81.9263	8,574.1	84.3955	8,574.1	86.9482	8,574.1	90.9564	8,574.1	81.9263	8,574.1	84.3955	8,574.1	64.4774	8,574.1	71.5695	8,574.1	79.1861	8,574.1	76.8537	8,574.1	75.8483	8,574.1	79.9098	8,574.1	80.1205	8,574.1	83.1302	8,574.1	84.1185	8,574.1	84.5225	8,574.1	85.7385	8,574.1	86.3983	8,574.1	87.6918	8,574.1	87.5123	8,574.1	88.2091
8,876.59	87.7583	8,876.59	87.6594	8,876.59	87.1599	8,876.59	85.8018	8,876.59	86.2111	8,876.59	82.9293	8,876.59	84.4439	8,876.59	80.3511	8,876.59	82.9791	8,876.59	76.1753	8,876.59	80.8065	8,876.59	78.3027	8,876.59	76.057	8,876.59	63.1147	8,876.59	66.4626	8,876.59	80.8853	8,876.59	81.7116	8,876.59	86.3431	8,876.59	88.9007	8,876.59	80.8853	8,876.59	81.7116	8,876.59	63.1147	8,876.59	66.4626	8,876.59	78.3027	8,876.59	76.057	8,876.59	76.1753	8,876.59	80.8065	8,876.59	80.3511	8,876.59	82.9791	8,876.59	82.9293	8,876.59	84.4439	8,876.59	85.8018	8,876.59	86.2111	8,876.59	87.6594	8,876.59	87.1599	8,876.59	87.7583
9,189.7	87.8793	9,189.7	87.5225	9,189.7	87.2467	9,189.7	85.2997	9,189.7	85.6815	9,189.7	82.7532	9,189.7	84.9116	9,189.7	80.5261	9,189.7	82.8748	9,189.7	75.7583	9,189.7	80.5099	9,189.7	77.563	9,189.7	77.083	9,189.7	62.8531	9,189.7	59.1962	9,189.7	79.7866	9,189.7	78.4463	9,189.7	85.8791	9,189.7	86.2451	9,189.7	79.7866	9,189.7	78.4463	9,189.7	62.8531	9,189.7	59.1962	9,189.7	77.563	9,189.7	77.083	9,189.7	75.7583	9,189.7	80.5099	9,189.7	80.5261	9,189.7	82.8748	9,189.7	82.7532	9,189.7	84.9116	9,189.7	85.2997	9,189.7	85.6815	9,189.7	87.5225	9,189.7	87.2467	9,189.7	87.8793
9,513.79	87.4781	9,513.79	87.2305	9,513.79	87.2431	9,513.79	85.5532	9,513.79	85.4739	9,513.79	82.5304	9,513.79	84.7271	9,513.79	80.2663	9,513.79	82.3799	9,513.79	74.9397	9,513.79	79.7993	9,513.79	76.3918	9,513.79	73.14	9,513.79	64.5846	9,513.79	58.1184	9,513.79	78.8703	9,513.79	73.8727	9,513.79	84.8961	9,513.79	82.5158	9,513.79	78.8703	9,513.79	73.8727	9,513.79	64.5846	9,513.79	58.1184	9,513.79	76.3918	9,513.79	73.14	9,513.79	74.9397	9,513.79	79.7993	9,513.79	80.2663	9,513.79	82.3799	9,513.79	82.5304	9,513.79	84.7271	9,513.79	85.5532	9,513.79	85.4739	9,513.79	87.2305	9,513.79	87.2431	9,513.79	87.4781
9,849.24	87.4856	9,849.24	87.24	9,849.24	87.2307	9,849.24	85.1844	9,849.24	85.3908	9,849.24	81.9548	9,849.24	84.5708	9,849.24	80.2353	9,849.24	81.9034	9,849.24	74.6922	9,849.24	77.5245	9,849.24	74.3617	9,849.24	74.2549	9,849.24	66.1693	9,849.24	62.3815	9,849.24	77.3816	9,849.24	67.4882	9,849.24	83.8943	9,849.24	76.4248	9,849.24	77.3816	9,849.24	67.4882	9,849.24	66.1693	9,849.24	62.3815	9,849.24	74.3617	9,849.24	74.2549	9,849.24	74.6922	9,849.24	77.5245	9,849.24	80.2353	9,849.24	81.9034	9,849.24	81.9548	9,849.24	84.5708	9,849.24	85.1844	9,849.24	85.3908	9,849.24	87.24	9,849.24	87.2307	9,849.24	87.4856
10,196.4	87.557	10,196.4	87.5055	10,196.4	87.0077	10,196.4	84.9342	10,196.4	85.5868	10,196.4	81.6933	10,196.4	84.1217	10,196.4	79.8053	10,196.4	81.6276	10,196.4	73.4389	10,196.4	76.8719	10,196.4	73.2648	10,196.4	71.8576	10,196.4	64.8732	10,196.4	63.4668	10,196.4	75.1909	10,196.4	59.2436	10,196.4	82.2096	10,196.4	69.4854	10,196.4	75.1909	10,196.4	59.2436	10,196.4	64.8732	10,196.4	63.4668	10,196.4	73.2648	10,196.4	71.8576	10,196.4	73.4389	10,196.4	76.8719	10,196.4	79.8053	10,196.4	81.6276	10,196.4	81.6933	10,196.4	84.1217	10,196.4	84.9342	10,196.4	85.5868	10,196.4	87.5055	10,196.4	87.0077	10,196.4	87.557
10,556	87.6907	10,556	87.5538	10,556	86.9268	10,556	84.6808	10,556	86.0476	10,556	81.3799	10,556	83.882	10,556	79.2001	10,556	81.2472	10,556	72.7235	10,556	77.5834	10,556	72.513	10,556	73.137	10,556	61.4806	10,556	62.9805	10,556	74.1555	10,556	68.0522	10,556	80.9787	10,556	71.5531	10,556	74.1555	10,556	68.0522	10,556	61.4806	10,556	62.9805	10,556	72.513	10,556	73.137	10,556	72.7235	10,556	77.5834	10,556	79.2001	10,556	81.2472	10,556	81.3799	10,556	83.882	10,556	84.6808	10,556	86.0476	10,556	87.5538	10,556	86.9268	10,556	87.6907
10,928.5	87.7712	10,928.5	87.3255	10,928.5	86.8301	10,928.5	84.612	10,928.5	86.1855	10,928.5	81.3423	10,928.5	83.9605	10,928.5	79.2305	10,928.5	81.5295	10,928.5	72.7331	10,928.5	76.8315	10,928.5	71.7781	10,928.5	70.605	10,928.5	62.0025	10,928.5	63.2835	10,928.5	74.0557	10,928.5	71.28	10,928.5	80.6627	10,928.5	75.663	10,928.5	74.0557	10,928.5	71.28	10,928.5	62.0025	10,928.5	63.2835	10,928.5	71.7781	10,928.5	70.605	10,928.5	72.7331	10,928.5	76.8315	10,928.5	79.2305	10,928.5	81.5295	10,928.5	81.3423	10,928.5	83.9605	10,928.5	84.612	10,928.5	86.1855	10,928.5	87.3255	10,928.5	86.8301	10,928.5	87.7712
11,313.7	87.8707	11,313.7	87.2587	11,313.7	86.7515	11,313.7	84.4726	11,313.7	86.3465	11,313.7	81.3493	11,313.7	83.7424	11,313.7	79.4767	11,313.7	81.4749	11,313.7	71.6327	11,313.7	75.4895	11,313.7	71.5329	11,313.7	71.5534	11,313.7	56.9167	11,313.7	64.811	11,313.7	74.0726	11,313.7	74.3889	11,313.7	81.1109	11,313.7	78.134	11,313.7	74.0726	11,313.7	74.3889	11,313.7	56.9167	11,313.7	64.811	11,313.7	71.5329	11,313.7	71.5534	11,313.7	71.6327	11,313.7	75.4895	11,313.7	79.4767	11,313.7	81.4749	11,313.7	81.3493	11,313.7	83.7424	11,313.7	84.4726	11,313.7	86.3465	11,313.7	87.2587	11,313.7	86.7515	11,313.7	87.8707
11,712.5	87.6995	11,712.5	87.0333	11,712.5	86.8614	11,712.5	84.7094	11,712.5	86.151	11,712.5	81.5636	11,712.5	83.4608	11,712.5	78.9317	11,712.5	80.2291	11,712.5	71.1352	11,712.5	73.1181	11,712.5	70.3396	11,712.5	72.6672	11,712.5	58.1987	11,712.5	63.8243	11,712.5	74.3872	11,712.5	73.9845	11,712.5	81.3429	11,712.5	78.7725	11,712.5	74.3872	11,712.5	73.9845	11,712.5	58.1987	11,712.5	63.8243	11,712.5	70.3396	11,712.5	72.6672	11,712.5	71.1352	11,712.5	73.1181	11,712.5	78.9317	11,712.5	80.2291	11,712.5	81.5636	11,712.5	83.4608	11,712.5	84.7094	11,712.5	86.151	11,712.5	87.0333	11,712.5	86.8614	11,712.5	87.6995
12,125.6	87.2801	12,125.6	86.5703	12,125.6	86.9832	12,125.6	84.9346	12,125.6	86.1952	12,125.6	81.6789	12,125.6	82.9706	12,125.6	78.5039	12,125.6	79.1204	12,125.6	70.0004	12,125.6	73.6079	12,125.6	70.4583	12,125.6	71.0528	12,125.6	61.4228	12,125.6	64.9241	12,125.6	75.0447	12,125.6	71.6609	12,125.6	81.37	12,125.6	78.4222	12,125.6	75.0447	12,125.6	71.6609	12,125.6	61.4228	12,125.6	64.9241	12,125.6	70.4583	12,125.6	71.0528	12,125.6	70.0004	12,125.6	73.6079	12,125.6	78.5039	12,125.6	79.1204	12,125.6	81.6789	12,125.6	82.9706	12,125.6	84.9346	12,125.6	86.1952	12,125.6	86.5703	12,125.6	86.9832	12,125.6	87.2801
12,553.3	86.8456	12,553.3	86.399	12,553.3	86.8177	12,553.3	85.2092	12,553.3	86.1098	12,553.3	81.7546	12,553.3	82.5682	12,553.3	78.1779	12,553.3	79.7396	12,553.3	70.9688	12,553.3	74.5356	12,553.3	71.1234	12,553.3	71.8852	12,553.3	63.3939	12,553.3	65.5355	12,553.3	75.4715	12,553.3	68.31	12,553.3	80.5202	12,553.3	76.7448	12,553.3	75.4715	12,553.3	68.31	12,553.3	63.3939	12,553.3	65.5355	12,553.3	71.1234	12,553.3	71.8852	12,553.3	70.9688	12,553.3	74.5356	12,553.3	78.1779	12,553.3	79.7396	12,553.3	81.7546	12,553.3	82.5682	12,553.3	85.2092	12,553.3	86.1098	12,553.3	86.399	12,553.3	86.8177	12,553.3	86.8456
12,996.1	87.3583	12,996.1	86.8232	12,996.1	87.1676	12,996.1	85.2851	12,996.1	86.2979	12,996.1	81.2207	12,996.1	82.5466	12,996.1	78.0313	12,996.1	80.6475	12,996.1	71.2227	12,996.1	74.1362	12,996.1	69.4686	12,996.1	70.4683	12,996.1	65.1158	12,996.1	65.0992	12,996.1	74.8225	12,996.1	61.2968	12,996.1	78.7769	12,996.1	72.7401	12,996.1	74.8225	12,996.1	61.2968	12,996.1	65.1158	12,996.1	65.0992	12,996.1	69.4686	12,996.1	70.4683	12,996.1	71.2227	12,996.1	74.1362	12,996.1	78.0313	12,996.1	80.6475	12,996.1	81.2207	12,996.1	82.5466	12,996.1	85.2851	12,996.1	86.2979	12,996.1	86.8232	12,996.1	87.1676	12,996.1	87.3583
13,454.2	87.9352	13,454.2	87.4105	13,454.2	87.4567	13,454.2	85.0086	13,454.2	86.6481	13,454.2	80.1589	13,454.2	82.7426	13,454.2	76.5706	13,454.2	80.3921	13,454.2	70.2545	13,454.2	72.628	13,454.2	67.428	13,454.2	67.1322	13,454.2	64.0686	13,454.2	63.0114	13,454.2	72.0554	13,454.2	54.8293	13,454.2	75.9138	13,454.2	65.0306	13,454.2	72.0554	13,454.2	54.8293	13,454.2	64.0686	13,454.2	63.0114	13,454.2	67.428	13,454.2	67.1322	13,454.2	70.2545	13,454.2	72.628	13,454.2	76.5706	13,454.2	80.3921	13,454.2	80.1589	13,454.2	82.7426	13,454.2	85.0086	13,454.2	86.6481	13,454.2	87.4105	13,454.2	87.4567	13,454.2	87.9352
13,928.8	88.1594	13,928.8	87.7076	13,928.8	87.482	13,928.8	84.7501	13,928.8	86.6761	13,928.8	78.8796	13,928.8	82.1773	13,928.8	74.5257	13,928.8	79.6673	13,928.8	69.3988	13,928.8	70.91	13,928.8	65.3425	13,928.8	60.5005	13,928.8	63.8589	13,928.8	59.6996	13,928.8	68.7077	13,928.8	61.655	13,928.8	73.6437	13,928.8	65.7825	13,928.8	68.7077	13,928.8	61.655	13,928.8	63.8589	13,928.8	59.6996	13,928.8	65.3425	13,928.8	60.5005	13,928.8	69.3988	13,928.8	70.91	13,928.8	74.5257	13,928.8	79.6673	13,928.8	78.8796	13,928.8	82.1773	13,928.8	84.7501	13,928.8	86.6761	13,928.8	87.7076	13,928.8	87.482	13,928.8	88.1594
14,419.9	87.9797	14,419.9	87.5681	14,419.9	87.1031	14,419.9	84.5283	14,419.9	86.4401	14,419.9	77.6227	14,419.9	81.7363	14,419.9	72.146	14,419.9	78.6451	14,419.9	67.0926	14,419.9	70.0569	14,419.9	61.1452	14,419.9	52.1641	14,419.9	62.82	14,419.9	56.4806	14,419.9	65.8249	14,419.9	67.0437	14,419.9	72.6247	14,419.9	68.2693	14,419.9	65.8249	14,419.9	67.0437	14,419.9	62.82	14,419.9	56.4806	14,419.9	61.1452	14,419.9	52.1641	14,419.9	67.0926	14,419.9	70.0569	14,419.9	72.146	14,419.9	78.6451	14,419.9	77.6227	14,419.9	81.7363	14,419.9	84.5283	14,419.9	86.4401	14,419.9	87.5681	14,419.9	87.1031	14,419.9	87.9797
14,928.6	87.5038	14,928.6	87.1851	14,928.6	86.4486	14,928.6	84.0278	14,928.6	85.7058	14,928.6	75.5988	14,928.6	80.3587	14,928.6	67.6108	14,928.6	77.0789	14,928.6	64.7572	14,928.6	71.5684	14,928.6	57.3656	14,928.6	65.5023	14,928.6	60.2941	14,928.6	59.8498	14,928.6	67.4069	14,928.6	70.7956	14,928.6	72.9841	14,928.6	69.1309	14,928.6	67.4069	14,928.6	70.7956	14,928.6	60.2941	14,928.6	59.8498	14,928.6	57.3656	14,928.6	65.5023	14,928.6	64.7572	14,928.6	71.5684	14,928.6	67.6108	14,928.6	77.0789	14,928.6	75.5988	14,928.6	80.3587	14,928.6	84.0278	14,928.6	85.7058	14,928.6	87.1851	14,928.6	86.4486	14,928.6	87.5038
15,454.8	86.5211	15,454.8	86.5006	15,454.8	85.5256	15,454.8	83.5905	15,454.8	84.6388	15,454.8	75.7292	15,454.8	78.7366	15,454.8	65.6446	15,454.8	77.1939	15,454.8	65.4226	15,454.8	74.1428	15,454.8	62.3854	15,454.8	68.8821	15,454.8	62.2331	15,454.8	64.5837	15,454.8	68.429	15,454.8	72.3231	15,454.8	73.7628	15,454.8	69.3278	15,454.8	68.429	15,454.8	72.3231	15,454.8	62.2331	15,454.8	64.5837	15,454.8	62.3854	15,454.8	68.8821	15,454.8	65.4226	15,454.8	74.1428	15,454.8	65.6446	15,454.8	77.1939	15,454.8	75.7292	15,454.8	78.7366	15,454.8	83.5905	15,454.8	84.6388	15,454.8	86.5006	15,454.8	85.5256	15,454.8	86.5211
16,000.1	84.7714	16,000.1	84.9117	16,000.1	83.5177	16,000.1	82.1189	16,000.1	83.3944	16,000.1	74.908	16,000.1	76.1732	16,000.1	53.1495	16,000.1	75.6145	16,000.1	64.6258	16,000.1	74.0231	16,000.1	64.617	16,000.1	69.3486	16,000.1	65.6762	16,000.1	65.5756	16,000.1	67.5066	16,000.1	71.5978	16,000.1	73.7386	16,000.1	67.8819	16,000.1	67.5066	16,000.1	71.5978	16,000.1	65.6762	16,000.1	65.5756	16,000.1	64.617	16,000.1	69.3486	16,000.1	64.6258	16,000.1	74.0231	16,000.1	53.1495	16,000.1	75.6145	16,000.1	74.908	16,000.1	76.1732	16,000.1	82.1189	16,000.1	83.3944	16,000.1	84.9117	16,000.1	83.5177	16,000.1	84.7714
16,564.1	83.1826	16,564.1	83.4637	16,564.1	81.1782	16,564.1	80.3387	16,564.1	81.9627	16,564.1	74.9129	16,564.1	75.0277	16,564.1	63.5111	16,564.1	74.1611	16,564.1	66.5648	16,564.1	73.6316	16,564.1	62.6821	16,564.1	67.6362	16,564.1	67.4159	16,564.1	63.4569	16,564.1	59.3143	16,564.1	68.1557	16,564.1	74.2436	16,564.1	70.2625	16,564.1	59.3143	16,564.1	68.1557	16,564.1	67.4159	16,564.1	63.4569	16,564.1	62.6821	16,564.1	67.6362	16,564.1	66.5648	16,564.1	73.6316	16,564.1	63.5111	16,564.1	74.1611	16,564.1	74.9129	16,564.1	75.0277	16,564.1	80.3387	16,564.1	81.9627	16,564.1	83.4637	16,564.1	81.1782	16,564.1	83.1826
17,148.2	83.4386	17,148.2	84.3837	17,148.2	80.9145	17,148.2	81.5335	17,148.2	82.3158	17,148.2	76.4167	17,148.2	73.8455	17,148.2	63.4122	17,148.2	73.6959	17,148.2	67.7408	17,148.2	73.2038	17,148.2	56.9313	17,148.2	68.095	17,148.2	66.6788	17,148.2	64.7836	17,148.2	61.4946	17,148.2	65.31	17,148.2	74.0602	17,148.2	73.4944	17,148.2	61.4946	17,148.2	65.31	17,148.2	66.6788	17,148.2	64.7836	17,148.2	56.9313	17,148.2	68.095	17,148.2	67.7408	17,148.2	73.2038	17,148.2	63.4122	17,148.2	73.6959	17,148.2	76.4167	17,148.2	73.8455	17,148.2	81.5335	17,148.2	82.3158	17,148.2	84.3837	17,148.2	80.9145	17,148.2	83.4386
17,753.2	82.6591	17,753.2	84.0925	17,753.2	79.6571	17,753.2	81.346	17,753.2	81.597	17,753.2	76.1612	17,753.2	71.4929	17,753.2	65.6232	17,753.2	72.3607	17,753.2	68.3697	17,753.2	71.9	17,753.2	55.8604	17,753.2	70.3154	17,753.2	66.8506	17,753.2	66.9514	17,753.2	66.1681	17,753.2	63.3688	17,753.2	74.2051	17,753.2	74.8651	17,753.2	66.1681	17,753.2	63.3688	17,753.2	66.8506	17,753.2	66.9514	17,753.2	55.8604	17,753.2	70.3154	17,753.2	68.3697	17,753.2	71.9	17,753.2	65.6232	17,753.2	72.3607	17,753.2	76.1612	17,753.2	71.4929	17,753.2	81.346	17,753.2	81.597	17,753.2	84.0925	17,753.2	79.6571	17,753.2	82.6591
18,379	81.2204	18,379	83.4129	18,379	77.9529	18,379	80.9533	18,379	80.5007	18,379	76.9029	18,379	70.6389	18,379	67.8125	18,379	71.1164	18,379	66.3698	18,379	69.918	18,379	59.4611	18,379	69.5124	18,379	63.9801	18,379	64.8115	18,379	67.4586	18,379	63.5013	18,379	72.8822	18,379	74.0831	18,379	67.4586	18,379	63.5013	18,379	63.9801	18,379	64.8115	18,379	59.4611	18,379	69.5124	18,379	66.3698	18,379	69.918	18,379	67.8125	18,379	71.1164	18,379	76.9029	18,379	70.6389	18,379	80.9533	18,379	80.5007	18,379	83.4129	18,379	77.9529	18,379	81.2204
19,027.2	79.9933	19,027.2	82.8076	19,027.2	75.8677	19,027.2	80.737	19,027.2	79.1367	19,027.2	77.9024	19,027.2	72.5342	19,027.2	68.2467	19,027.2	71.2158	19,027.2	63.4751	19,027.2	66.925	19,027.2	61.9595	19,027.2	67.6712	19,027.2	58.5925	19,027.2	59.8864	19,027.2	66.3748	19,027.2	61.6443	19,027.2	69.3309	19,027.2	71.6014	19,027.2	66.3748	19,027.2	61.6443	19,027.2	58.5925	19,027.2	59.8864	19,027.2	61.9595	19,027.2	67.6712	19,027.2	63.4751	19,027.2	66.925	19,027.2	68.2467	19,027.2	71.2158	19,027.2	77.9024	19,027.2	72.5342	19,027.2	80.737	19,027.2	79.1367	19,027.2	82.8076	19,027.2	75.8677	19,027.2	79.9933
19,698.5	78.7743	19,698.5	81.717	19,698.5	72.276	19,698.5	80.3886	19,698.5	77.3243	19,698.5	78.7299	19,698.5	74.5586	19,698.5	68.2307	19,698.5	70.8233	19,698.5	59.2825	19,698.5	64.8364	19,698.5	64.9266	19,698.5	63.3852	19,698.5	46.9435	19,698.5	49.7418	19,698.5	62.7449	19,698.5	55.4939	19,698.5	54.1183	19,698.5	65.3165	19,698.5	62.7449	19,698.5	55.4939	19,698.5	46.9435	19,698.5	49.7418	19,698.5	64.9266	19,698.5	63.3852	19,698.5	59.2825	19,698.5	64.8364	19,698.5	68.2307	19,698.5	70.8233	19,698.5	78.7299	19,698.5	74.5586	19,698.5	80.3886	19,698.5	77.3243	19,698.5	81.717	19,698.5	72.276	19,698.5	78.7743
19,999.9	78.3244	19,999.9	80.7023	19,999.9	71.0395	19,999.9	80.3232	19,999.9	75.9516	19,999.9	78.5832	19,999.9	75.4947	19,999.9	68.4896	19,999.9	70.9126	19,999.9	59.7515	19,999.9	64.7197	19,999.9	64.9374	19,999.9	64.1482	19,999.9	52.5983	19,999.9	52.4281	19,999.9	59.2316	19,999.9	57.2143	19,999.9	57.9553	19,999.9	64.6322	19,999.9	59.2316	19,999.9	57.2143	19,999.9	52.5983	19,999.9	52.4281	19,999.9	64.9374	19,999.9	64.1482	19,999.9	59.7515	19,999.9	64.7197	19,999.9	68.4896	19,999.9	70.9126	19,999.9	78.5832	19,999.9	75.4947	19,999.9	80.3232	19,999.9	75.9516	19,999.9	80.7023	19,999.9	71.0395	19,999.9	78.3244
