"SPL Horizontal"
"On-Axis"		"10°"		"-10°"		"20°"		"-20°"		"30°"		"-30°"		"40°"		"-40°"		"50°"		"-50°"		"60°"		"-60°"		"70°"		"-70°"		"80°"		"-80°"		"90°"		"-90°"		"100°"		"-100°"		"110°"		"-110°"		"120°"		"-120°"		"130°"		"-130°"		"140°"		"-140°"		"150°"		"-150°"		"160°"		"-160°"		"170°"		"-170°"		"180°"
"Frequency / Hz"	"Sound Pressure Level / dB (re 20 µPa/V)  [2.83  V @ 1. m]"	"Frequency / Hz"	"Sound Pressure Level / dB (re 20 µPa/V)  [2.83  V @ 1. m]"	"Frequency / Hz"	"Sound Pressure Level / dB (re 20 µPa/V)  [2.83  V @ 1. m]"	"Frequency / Hz"	"Sound Pressure Level / dB (re 20 µPa/V)  [2.83  V @ 1. m]"	"Frequency / Hz"	"Sound Pressure Level / dB (re 20 µPa/V)  [2.83  V @ 1. m]"	"Frequency / Hz"	"Sound Pressure Level / dB (re 20 µPa/V)  [2.83  V @ 1. m]"	"Frequency / Hz"	"Sound Pressure Level / dB (re 20 µPa/V)  [2.83  V @ 1. m]"	"Frequency / Hz"	"Sound Pressure Level / dB (re 20 µPa/V)  [2.83  V @ 1. m]"	"Frequency / Hz"	"Sound Pressure Level / dB (re 20 µPa/V)  [2.83  V @ 1. m]"	"Frequency / Hz"	"Sound Pressure Level / dB (re 20 µPa/V)  [2.83  V @ 1. m]"	"Frequency / Hz"	"Sound Pressure Level / dB (re 20 µPa/V)  [2.83  V @ 1. m]"	"Frequency / Hz"	"Sound Pressure Level / dB (re 20 µPa/V)  [2.83  V @ 1. m]"	"Frequency / Hz"	"Sound Pressure Level / dB (re 20 µPa/V)  [2.83  V @ 1. m]"	"Frequency / Hz"	"Sound Pressure Level / dB (re 20 µPa/V)  [2.83  V @ 1. m]"	"Frequency / Hz"	"Sound Pressure Level / dB (re 20 µPa/V)  [2.83  V @ 1. m]"	"Frequency / Hz"	"Sound Pressure Level / dB (re 20 µPa/V)  [2.83  V @ 1. m]"	"Frequency / Hz"	"Sound Pressure Level / dB (re 20 µPa/V)  [2.83  V @ 1. m]"	"Frequency / Hz"	"Sound Pressure Level / dB (re 20 µPa/V)  [2.83  V @ 1. m]"	"Frequency / Hz"	"Sound Pressure Level / dB (re 20 µPa/V)  [2.83  V @ 1. m]"	"Frequency / Hz"	"Sound Pressure Level / dB (re 20 µPa/V)  [2.83  V @ 1. m]"	"Frequency / Hz"	"Sound Pressure Level / dB (re 20 µPa/V)  [2.83  V @ 1. m]"	"Frequency / Hz"	"Sound Pressure Level / dB (re 20 µPa/V)  [2.83  V @ 1. m]"	"Frequency / Hz"	"Sound Pressure Level / dB (re 20 µPa/V)  [2.83  V @ 1. m]"	"Frequency / Hz"	"Sound Pressure Level / dB (re 20 µPa/V)  [2.83  V @ 1. m]"	"Frequency / Hz"	"Sound Pressure Level / dB (re 20 µPa/V)  [2.83  V @ 1. m]"	"Frequency / Hz"	"Sound Pressure Level / dB (re 20 µPa/V)  [2.83  V @ 1. m]"	"Frequency / Hz"	"Sound Pressure Level / dB (re 20 µPa/V)  [2.83  V @ 1. m]"	"Frequency / Hz"	"Sound Pressure Level / dB (re 20 µPa/V)  [2.83  V @ 1. m]"	"Frequency / Hz"	"Sound Pressure Level / dB (re 20 µPa/V)  [2.83  V @ 1. m]"	"Frequency / Hz"	"Sound Pressure Level / dB (re 20 µPa/V)  [2.83  V @ 1. m]"	"Frequency / Hz"	"Sound Pressure Level / dB (re 20 µPa/V)  [2.83  V @ 1. m]"	"Frequency / Hz"	"Sound Pressure Level / dB (re 20 µPa/V)  [2.83  V @ 1. m]"	"Frequency / Hz"	"Sound Pressure Level / dB (re 20 µPa/V)  [2.83  V @ 1. m]"	"Frequency / Hz"	"Sound Pressure Level / dB (re 20 µPa/V)  [2.83  V @ 1. m]"	"Frequency / Hz"	"Sound Pressure Level / dB (re 20 µPa/V)  [2.83  V @ 1. m]"	"Frequency / Hz"	"Sound Pressure Level / dB (re 20 µPa/V)  [2.83  V @ 1. m]"
20.5078	75.5667	20.5078	75.5679	20.5078	75.5659	20.5078	75.5696	20.5078	75.5657	20.5078	75.5716	20.5078	75.566	20.5078	75.5737	20.5078	75.5667	20.5078	75.5757	20.5078	75.5676	20.5078	75.5775	20.5078	75.5686	20.5078	75.5789	20.5078	75.5695	20.5078	75.5798	20.5078	75.5701	20.5078	75.5801	20.5078	75.5704	20.5078	75.5798	20.5078	75.5701	20.5078	75.5789	20.5078	75.5695	20.5078	75.5775	20.5078	75.5686	20.5078	75.5757	20.5078	75.5676	20.5078	75.5737	20.5078	75.5667	20.5078	75.5716	20.5078	75.566	20.5078	75.5696	20.5078	75.5657	20.5078	75.5679	20.5078	75.5659	20.5078	75.5667
21.9727	77.0813	21.9727	77.0811	21.9727	77.082	21.9727	77.0815	21.9727	77.0833	21.9727	77.0823	21.9727	77.085	21.9727	77.0834	21.9727	77.0869	21.9727	77.0847	21.9727	77.089	21.9727	77.0859	21.9727	77.0909	21.9727	77.0868	21.9727	77.0924	21.9727	77.0875	21.9727	77.0934	21.9727	77.0877	21.9727	77.0938	21.9727	77.0875	21.9727	77.0934	21.9727	77.0868	21.9727	77.0924	21.9727	77.0859	21.9727	77.0909	21.9727	77.0847	21.9727	77.089	21.9727	77.0834	21.9727	77.0869	21.9727	77.0823	21.9727	77.085	21.9727	77.0815	21.9727	77.0833	21.9727	77.0811	21.9727	77.082	21.9727	77.0813
23.4375	78.1504	23.4375	78.1502	23.4375	78.151	23.4375	78.1505	23.4375	78.1521	23.4375	78.1512	23.4375	78.1536	23.4375	78.1522	23.4375	78.1553	23.4375	78.1533	23.4375	78.1571	23.4375	78.1544	23.4375	78.1587	23.4375	78.1553	23.4375	78.16	23.4375	78.1559	23.4375	78.1608	23.4375	78.1561	23.4375	78.1611	23.4375	78.1559	23.4375	78.1608	23.4375	78.1553	23.4375	78.16	23.4375	78.1544	23.4375	78.1587	23.4375	78.1533	23.4375	78.1571	23.4375	78.1522	23.4375	78.1553	23.4375	78.1512	23.4375	78.1536	23.4375	78.1505	23.4375	78.1521	23.4375	78.1502	23.4375	78.151	23.4375	78.1504
24.9023	79.2214	24.9023	79.2224	24.9023	79.221	24.9023	79.2238	24.9023	79.221	24.9023	79.2256	24.9023	79.2215	24.9023	79.2276	24.9023	79.2224	24.9023	79.2296	24.9023	79.2234	24.9023	79.2314	24.9023	79.2244	24.9023	79.2329	24.9023	79.2252	24.9023	79.2338	24.9023	79.2258	24.9023	79.2341	24.9023	79.226	24.9023	79.2338	24.9023	79.2258	24.9023	79.2329	24.9023	79.2252	24.9023	79.2314	24.9023	79.2244	24.9023	79.2296	24.9023	79.2234	24.9023	79.2276	24.9023	79.2224	24.9023	79.2256	24.9023	79.2215	24.9023	79.2238	24.9023	79.221	24.9023	79.2224	24.9023	79.221	24.9023	79.2214
26.3672	80.2193	26.3672	80.2207	26.3672	80.2183	26.3672	80.2227	26.3672	80.2178	26.3672	80.2249	26.3672	80.2177	26.3672	80.2273	26.3672	80.218	26.3672	80.2296	26.3672	80.2186	26.3672	80.2317	26.3672	80.2192	26.3672	80.2333	26.3672	80.2197	26.3672	80.2344	26.3672	80.2201	26.3672	80.2347	26.3672	80.2203	26.3672	80.2344	26.3672	80.2201	26.3672	80.2333	26.3672	80.2197	26.3672	80.2317	26.3672	80.2192	26.3672	80.2296	26.3672	80.2186	26.3672	80.2273	26.3672	80.218	26.3672	80.2249	26.3672	80.2177	26.3672	80.2227	26.3672	80.2178	26.3672	80.2207	26.3672	80.2183	26.3672	80.2193
27.832	81.1125	27.832	81.1148	27.832	81.1107	27.832	81.1176	27.832	81.1096	27.832	81.1207	27.832	81.109	27.832	81.124	27.832	81.1088	27.832	81.1272	27.832	81.109	27.832	81.1299	27.832	81.1093	27.832	81.1321	27.832	81.1096	27.832	81.1335	27.832	81.1099	27.832	81.134	27.832	81.11	27.832	81.1335	27.832	81.1099	27.832	81.1321	27.832	81.1096	27.832	81.1299	27.832	81.1093	27.832	81.1272	27.832	81.109	27.832	81.124	27.832	81.1088	27.832	81.1207	27.832	81.109	27.832	81.1176	27.832	81.1096	27.832	81.1148	27.832	81.1107	27.832	81.1125
29.2969	81.8565	29.2969	81.8574	29.2969	81.8558	29.2969	81.8586	29.2969	81.8554	29.2969	81.8599	29.2969	81.8553	29.2969	81.8613	29.2969	81.8554	29.2969	81.8625	29.2969	81.8557	29.2969	81.8636	29.2969	81.8561	29.2969	81.8644	29.2969	81.8565	29.2969	81.8649	29.2969	81.8568	29.2969	81.8651	29.2969	81.8568	29.2969	81.8649	29.2969	81.8568	29.2969	81.8644	29.2969	81.8565	29.2969	81.8636	29.2969	81.8561	29.2969	81.8625	29.2969	81.8557	29.2969	81.8613	29.2969	81.8554	29.2969	81.8599	29.2969	81.8553	29.2969	81.8586	29.2969	81.8554	29.2969	81.8574	29.2969	81.8558	29.2969	81.8565
30.7617	82.6882	30.7617	82.6879	30.7617	82.689	30.7617	82.688	30.7617	82.69	30.7617	82.6884	30.7617	82.6914	30.7617	82.6891	30.7617	82.6929	30.7617	82.6898	30.7617	82.6944	30.7617	82.6906	30.7617	82.6958	30.7617	82.6913	30.7617	82.697	30.7617	82.6917	30.7617	82.6977	30.7617	82.6919	30.7617	82.6979	30.7617	82.6917	30.7617	82.6977	30.7617	82.6913	30.7617	82.697	30.7617	82.6906	30.7617	82.6958	30.7617	82.6898	30.7617	82.6944	30.7617	82.6891	30.7617	82.6929	30.7617	82.6884	30.7617	82.6914	30.7617	82.688	30.7617	82.69	30.7617	82.6879	30.7617	82.689	30.7617	82.6882
32.2266	83.4173	32.2266	83.4188	32.2266	83.4162	32.2266	83.4205	32.2266	83.4155	32.2266	83.4225	32.2266	83.4152	32.2266	83.4245	32.2266	83.4151	32.2266	83.4265	32.2266	83.4153	32.2266	83.4282	32.2266	83.4156	32.2266	83.4295	32.2266	83.4158	32.2266	83.4304	32.2266	83.416	32.2266	83.4307	32.2266	83.4161	32.2266	83.4304	32.2266	83.416	32.2266	83.4295	32.2266	83.4158	32.2266	83.4282	32.2266	83.4156	32.2266	83.4265	32.2266	83.4153	32.2266	83.4245	32.2266	83.4151	32.2266	83.4225	32.2266	83.4152	32.2266	83.4205	32.2266	83.4155	32.2266	83.4188	32.2266	83.4162	32.2266	83.4173
33.6914	84.0107	33.6914	84.0106	33.6914	84.011	33.6914	84.011	33.6914	84.0118	33.6914	84.0116	33.6914	84.0127	33.6914	84.0124	33.6914	84.0139	33.6914	84.0133	33.6914	84.0151	33.6914	84.0141	33.6914	84.0162	33.6914	84.0148	33.6914	84.0171	33.6914	84.0153	33.6914	84.0177	33.6914	84.0154	33.6914	84.0179	33.6914	84.0153	33.6914	84.0177	33.6914	84.0148	33.6914	84.0171	33.6914	84.0141	33.6914	84.0162	33.6914	84.0133	33.6914	84.0151	33.6914	84.0124	33.6914	84.0139	33.6914	84.0116	33.6914	84.0127	33.6914	84.011	33.6914	84.0118	33.6914	84.0106	33.6914	84.011	33.6914	84.0107
35.1562	84.6341	35.1562	84.6334	35.1562	84.6351	35.1562	84.633	35.1562	84.6364	35.1562	84.6328	35.1562	84.6378	35.1562	84.6329	35.1562	84.6393	35.1562	84.6332	35.1562	84.6407	35.1562	84.6335	35.1562	84.642	35.1562	84.6338	35.1562	84.643	35.1562	84.634	35.1562	84.6436	35.1562	84.6341	35.1562	84.6438	35.1562	84.634	35.1562	84.6436	35.1562	84.6338	35.1562	84.643	35.1562	84.6335	35.1562	84.642	35.1562	84.6332	35.1562	84.6407	35.1562	84.6329	35.1562	84.6393	35.1562	84.6328	35.1562	84.6378	35.1562	84.633	35.1562	84.6364	35.1562	84.6334	35.1562	84.6351	35.1562	84.6341
36.6211	85.1882	36.6211	85.1876	36.6211	85.1891	36.6211	85.1872	36.6211	85.1901	36.6211	85.1869	36.6211	85.1912	36.6211	85.1869	36.6211	85.1923	36.6211	85.187	36.6211	85.1935	36.6211	85.1871	36.6211	85.1945	36.6211	85.1873	36.6211	85.1952	36.6211	85.1874	36.6211	85.1957	36.6211	85.1874	36.6211	85.1959	36.6211	85.1874	36.6211	85.1957	36.6211	85.1873	36.6211	85.1952	36.6211	85.1871	36.6211	85.1945	36.6211	85.187	36.6211	85.1935	36.6211	85.1869	36.6211	85.1923	36.6211	85.1869	36.6211	85.1912	36.6211	85.1872	36.6211	85.1901	36.6211	85.1876	36.6211	85.1891	36.6211	85.1882
38.0859	85.6345	38.0859	85.634	38.0859	85.635	38.0859	85.6336	38.0859	85.6356	38.0859	85.6333	38.0859	85.6362	38.0859	85.6331	38.0859	85.6368	38.0859	85.633	38.0859	85.6374	38.0859	85.6329	38.0859	85.638	38.0859	85.6328	38.0859	85.6384	38.0859	85.6328	38.0859	85.6386	38.0859	85.6328	38.0859	85.6387	38.0859	85.6328	38.0859	85.6386	38.0859	85.6328	38.0859	85.6384	38.0859	85.6329	38.0859	85.638	38.0859	85.633	38.0859	85.6374	38.0859	85.6331	38.0859	85.6368	38.0859	85.6333	38.0859	85.6362	38.0859	85.6336	38.0859	85.6356	38.0859	85.634	38.0859	85.635	38.0859	85.6345
39.5508	85.8527	39.5508	85.8531	39.5508	85.8525	39.5508	85.8537	39.5508	85.8525	39.5508	85.8545	39.5508	85.8527	39.5508	85.8552	39.5508	85.853	39.5508	85.856	39.5508	85.8535	39.5508	85.8567	39.5508	85.8539	39.5508	85.8573	39.5508	85.8543	39.5508	85.8577	39.5508	85.8545	39.5508	85.8578	39.5508	85.8546	39.5508	85.8577	39.5508	85.8545	39.5508	85.8573	39.5508	85.8543	39.5508	85.8567	39.5508	85.8539	39.5508	85.856	39.5508	85.8535	39.5508	85.8552	39.5508	85.853	39.5508	85.8545	39.5508	85.8527	39.5508	85.8537	39.5508	85.8525	39.5508	85.8531	39.5508	85.8525	39.5508	85.8527
41.0156	86.0679	41.0156	86.0693	41.0156	86.0666	41.0156	86.0709	41.0156	86.0655	41.0156	86.0725	41.0156	86.0646	41.0156	86.074	41.0156	86.0639	41.0156	86.0754	41.0156	86.0634	41.0156	86.0765	41.0156	86.0631	41.0156	86.0774	41.0156	86.0629	41.0156	86.0779	41.0156	86.0627	41.0156	86.0781	41.0156	86.0627	41.0156	86.0779	41.0156	86.0627	41.0156	86.0774	41.0156	86.0629	41.0156	86.0765	41.0156	86.0631	41.0156	86.0754	41.0156	86.0634	41.0156	86.074	41.0156	86.0639	41.0156	86.0725	41.0156	86.0646	41.0156	86.0709	41.0156	86.0655	41.0156	86.0693	41.0156	86.0666	41.0156	86.0679
42.4805	86.3959	42.4805	86.3958	42.4805	86.396	42.4805	86.3958	42.4805	86.3963	42.4805	86.3959	42.4805	86.3966	42.4805	86.3961	42.4805	86.3969	42.4805	86.3962	42.4805	86.3973	42.4805	86.3964	42.4805	86.3976	42.4805	86.3966	42.4805	86.3978	42.4805	86.3967	42.4805	86.398	42.4805	86.3967	42.4805	86.3981	42.4805	86.3967	42.4805	86.398	42.4805	86.3966	42.4805	86.3978	42.4805	86.3964	42.4805	86.3976	42.4805	86.3962	42.4805	86.3973	42.4805	86.3961	42.4805	86.3969	42.4805	86.3959	42.4805	86.3966	42.4805	86.3958	42.4805	86.3963	42.4805	86.3958	42.4805	86.396	42.4805	86.3959
43.9453	86.6685	43.9453	86.6663	43.9453	86.6706	43.9453	86.6641	43.9453	86.6726	43.9453	86.662	43.9453	86.6744	43.9453	86.66	43.9453	86.6759	43.9453	86.6583	43.9453	86.6771	43.9453	86.6569	43.9453	86.6781	43.9453	86.6559	43.9453	86.6788	43.9453	86.6552	43.9453	86.6792	43.9453	86.655	43.9453	86.6794	43.9453	86.6552	43.9453	86.6792	43.9453	86.6559	43.9453	86.6788	43.9453	86.6569	43.9453	86.6781	43.9453	86.6583	43.9453	86.6771	43.9453	86.66	43.9453	86.6759	43.9453	86.662	43.9453	86.6744	43.9453	86.6641	43.9453	86.6726	43.9453	86.6663	43.9453	86.6706	43.9453	86.6685
45.4102	86.7808	45.4102	86.7771	45.4102	86.7843	45.4102	86.7734	45.4102	86.7875	45.4102	86.7697	45.4102	86.7905	45.4102	86.7663	45.4102	86.793	45.4102	86.7632	45.4102	86.7951	45.4102	86.7607	45.4102	86.7968	45.4102	86.7588	45.4102	86.7979	45.4102	86.7576	45.4102	86.7987	45.4102	86.7572	45.4102	86.7989	45.4102	86.7576	45.4102	86.7987	45.4102	86.7588	45.4102	86.7979	45.4102	86.7607	45.4102	86.7968	45.4102	86.7632	45.4102	86.7951	45.4102	86.7663	45.4102	86.793	45.4102	86.7697	45.4102	86.7905	45.4102	86.7734	45.4102	86.7875	45.4102	86.7771	45.4102	86.7843	45.4102	86.7808
46.875	86.8511	46.875	86.845	46.875	86.8563	46.875	86.8382	46.875	86.8605	46.875	86.831	46.875	86.8638	46.875	86.8238	46.875	86.8661	46.875	86.817	46.875	86.8677	46.875	86.8111	46.875	86.8686	46.875	86.8066	46.875	86.8691	46.875	86.8036	46.875	86.8693	46.875	86.8026	46.875	86.8694	46.875	86.8036	46.875	86.8693	46.875	86.8066	46.875	86.8691	46.875	86.8111	46.875	86.8686	46.875	86.817	46.875	86.8677	46.875	86.8238	46.875	86.8661	46.875	86.831	46.875	86.8638	46.875	86.8382	46.875	86.8605	46.875	86.845	46.875	86.8563	46.875	86.8511
48.3398	86.6024	48.3398	86.6008	48.3398	86.603	48.3398	86.5984	48.3398	86.6028	48.3398	86.5953	48.3398	86.6018	48.3398	86.5917	48.3398	86.6003	48.3398	86.5881	48.3398	86.5985	48.3398	86.5846	48.3398	86.5967	48.3398	86.5819	48.3398	86.5951	48.3398	86.5801	48.3398	86.5941	48.3398	86.5795	48.3398	86.5937	48.3398	86.5801	48.3398	86.5941	48.3398	86.5819	48.3398	86.5951	48.3398	86.5846	48.3398	86.5967	48.3398	86.5881	48.3398	86.5985	48.3398	86.5917	48.3398	86.6003	48.3398	86.5953	48.3398	86.6018	48.3398	86.5984	48.3398	86.6028	48.3398	86.6008	48.3398	86.603	48.3398	86.6024
51.2695	86.9775	51.2695	86.9782	51.2695	86.9768	51.2695	86.979	51.2695	86.9761	51.2695	86.9797	51.2695	86.9754	51.2695	86.9804	51.2695	86.9748	51.2695	86.9811	51.2695	86.9743	51.2695	86.9816	51.2695	86.9739	51.2695	86.982	51.2695	86.9735	51.2695	86.9822	51.2695	86.9733	51.2695	86.9823	51.2695	86.9733	51.2695	86.9822	51.2695	86.9733	51.2695	86.982	51.2695	86.9735	51.2695	86.9816	51.2695	86.9739	51.2695	86.9811	51.2695	86.9743	51.2695	86.9804	51.2695	86.9748	51.2695	86.9797	51.2695	86.9754	51.2695	86.979	51.2695	86.9761	51.2695	86.9782	51.2695	86.9768	51.2695	86.9775
52.7344	87.0507	52.7344	87.0519	52.7344	87.0495	52.7344	87.053	52.7344	87.0483	52.7344	87.0539	52.7344	87.0471	52.7344	87.0548	52.7344	87.046	52.7344	87.0554	52.7344	87.0451	52.7344	87.056	52.7344	87.0443	52.7344	87.0563	52.7344	87.0438	52.7344	87.0565	52.7344	87.0434	52.7344	87.0566	52.7344	87.0433	52.7344	87.0565	52.7344	87.0434	52.7344	87.0563	52.7344	87.0438	52.7344	87.056	52.7344	87.0443	52.7344	87.0554	52.7344	87.0451	52.7344	87.0548	52.7344	87.046	52.7344	87.0539	52.7344	87.0471	52.7344	87.053	52.7344	87.0483	52.7344	87.0519	52.7344	87.0495	52.7344	87.0507
54.1992	87.1206	54.1992	87.1225	54.1992	87.1186	54.1992	87.1242	54.1992	87.1165	54.1992	87.1256	54.1992	87.1144	54.1992	87.1269	54.1992	87.1124	54.1992	87.1278	54.1992	87.1106	54.1992	87.1286	54.1992	87.1091	54.1992	87.1291	54.1992	87.1079	54.1992	87.1294	54.1992	87.1072	54.1992	87.1295	54.1992	87.107	54.1992	87.1294	54.1992	87.1072	54.1992	87.1291	54.1992	87.1079	54.1992	87.1286	54.1992	87.1091	54.1992	87.1278	54.1992	87.1106	54.1992	87.1269	54.1992	87.1124	54.1992	87.1256	54.1992	87.1144	54.1992	87.1242	54.1992	87.1165	54.1992	87.1225	54.1992	87.1186	54.1992	87.1206
55.6641	87.3051	55.6641	87.3092	55.6641	87.3009	55.6641	87.3128	55.6641	87.2966	55.6641	87.3161	55.6641	87.2924	55.6641	87.3189	55.6641	87.2885	55.6641	87.3212	55.6641	87.285	55.6641	87.323	55.6641	87.282	55.6641	87.3242	55.6641	87.2798	55.6641	87.325	55.6641	87.2785	55.6641	87.3252	55.6641	87.278	55.6641	87.325	55.6641	87.2785	55.6641	87.3242	55.6641	87.2798	55.6641	87.323	55.6641	87.282	55.6641	87.3212	55.6641	87.285	55.6641	87.3189	55.6641	87.2885	55.6641	87.3161	55.6641	87.2924	55.6641	87.3128	55.6641	87.2966	55.6641	87.3092	55.6641	87.3009	55.6641	87.3051
58.5938	87.1429	58.5938	87.1426	58.5938	87.1429	58.5938	87.1422	58.5938	87.1427	58.5938	87.1416	58.5938	87.1423	58.5938	87.141	58.5938	87.1418	58.5938	87.1403	58.5938	87.1412	58.5938	87.1396	58.5938	87.1407	58.5938	87.1391	58.5938	87.1403	58.5938	87.1388	58.5938	87.14	58.5938	87.1387	58.5938	87.1399	58.5938	87.1388	58.5938	87.14	58.5938	87.1391	58.5938	87.1403	58.5938	87.1396	58.5938	87.1407	58.5938	87.1403	58.5938	87.1412	58.5938	87.141	58.5938	87.1418	58.5938	87.1416	58.5938	87.1423	58.5938	87.1422	58.5938	87.1427	58.5938	87.1426	58.5938	87.1429	58.5938	87.1429
60.0586	87.1326	60.0586	87.1282	60.0586	87.1368	60.0586	87.1236	60.0586	87.1407	60.0586	87.1192	60.0586	87.1442	60.0586	87.1151	60.0586	87.1472	60.0586	87.1114	60.0586	87.1497	60.0586	87.1084	60.0586	87.1516	60.0586	87.1061	60.0586	87.1529	60.0586	87.1047	60.0586	87.1537	60.0586	87.1042	60.0586	87.154	60.0586	87.1047	60.0586	87.1537	60.0586	87.1061	60.0586	87.1529	60.0586	87.1084	60.0586	87.1516	60.0586	87.1114	60.0586	87.1497	60.0586	87.1151	60.0586	87.1472	60.0586	87.1192	60.0586	87.1442	60.0586	87.1236	60.0586	87.1407	60.0586	87.1282	60.0586	87.1368	60.0586	87.1326
62.9883	86.8154	62.9883	86.8105	62.9883	86.82	62.9883	86.8054	62.9883	86.8241	62.9883	86.8003	62.9883	86.8276	62.9883	86.7953	62.9883	86.8306	62.9883	86.7909	62.9883	86.833	62.9883	86.7871	62.9883	86.8349	62.9883	86.7842	62.9883	86.8362	62.9883	86.7824	62.9883	86.8369	62.9883	86.7818	62.9883	86.8372	62.9883	86.7824	62.9883	86.8369	62.9883	86.7842	62.9883	86.8362	62.9883	86.7871	62.9883	86.8349	62.9883	86.7909	62.9883	86.833	62.9883	86.7953	62.9883	86.8306	62.9883	86.8003	62.9883	86.8276	62.9883	86.8054	62.9883	86.8241	62.9883	86.8105	62.9883	86.82	62.9883	86.8154
64.4531	86.6823	64.4531	86.6819	64.4531	86.6825	64.4531	86.6811	64.4531	86.6823	64.4531	86.6801	64.4531	86.6817	64.4531	86.6789	64.4531	86.681	64.4531	86.6778	64.4531	86.6801	64.4531	86.6768	64.4531	86.6793	64.4531	86.6759	64.4531	86.6786	64.4531	86.6754	64.4531	86.6781	64.4531	86.6753	64.4531	86.6779	64.4531	86.6754	64.4531	86.6781	64.4531	86.6759	64.4531	86.6786	64.4531	86.6768	64.4531	86.6793	64.4531	86.6778	64.4531	86.6801	64.4531	86.6789	64.4531	86.681	64.4531	86.6801	64.4531	86.6817	64.4531	86.6811	64.4531	86.6823	64.4531	86.6819	64.4531	86.6825	64.4531	86.6823
67.3828	86.8622	67.3828	86.8671	67.3828	86.8571	67.3828	86.8717	67.3828	86.8521	67.3828	86.8759	67.3828	86.8472	67.3828	86.8797	67.3828	86.8427	67.3828	86.8828	67.3828	86.8386	67.3828	86.8854	67.3828	86.8353	67.3828	86.8872	67.3828	86.8328	67.3828	86.8883	67.3828	86.8313	67.3828	86.8887	67.3828	86.8307	67.3828	86.8883	67.3828	86.8313	67.3828	86.8872	67.3828	86.8328	67.3828	86.8854	67.3828	86.8353	67.3828	86.8828	67.3828	86.8386	67.3828	86.8797	67.3828	86.8427	67.3828	86.8759	67.3828	86.8472	67.3828	86.8717	67.3828	86.8521	67.3828	86.8671	67.3828	86.8571	67.3828	86.8622
68.8477	86.8584	68.8477	86.8649	68.8477	86.8515	68.8477	86.8707	68.8477	86.8444	68.8477	86.8757	68.8477	86.8373	68.8477	86.88	68.8477	86.8305	68.8477	86.8834	68.8477	86.8244	68.8477	86.886	68.8477	86.8193	68.8477	86.8878	68.8477	86.8155	68.8477	86.8889	68.8477	86.813	68.8477	86.8892	68.8477	86.8122	68.8477	86.8889	68.8477	86.813	68.8477	86.8878	68.8477	86.8155	68.8477	86.886	68.8477	86.8193	68.8477	86.8834	68.8477	86.8244	68.8477	86.88	68.8477	86.8305	68.8477	86.8757	68.8477	86.8373	68.8477	86.8707	68.8477	86.8444	68.8477	86.8649	68.8477	86.8515	68.8477	86.8584
71.7773	86.8421	71.7773	86.8464	71.7773	86.8373	71.7773	86.8502	71.7773	86.8322	71.7773	86.8533	71.7773	86.827	71.7773	86.8557	71.7773	86.822	71.7773	86.8576	71.7773	86.8174	71.7773	86.8589	71.7773	86.8135	71.7773	86.8598	71.7773	86.8105	71.7773	86.8603	71.7773	86.8086	71.7773	86.8605	71.7773	86.808	71.7773	86.8603	71.7773	86.8086	71.7773	86.8598	71.7773	86.8105	71.7773	86.8589	71.7773	86.8135	71.7773	86.8576	71.7773	86.8174	71.7773	86.8557	71.7773	86.822	71.7773	86.8533	71.7773	86.827	71.7773	86.8502	71.7773	86.8322	71.7773	86.8464	71.7773	86.8373	71.7773	86.8421
74.707	86.8273	74.707	86.8275	74.707	86.8267	74.707	86.8273	74.707	86.8258	74.707	86.8267	74.707	86.8246	74.707	86.826	74.707	86.8232	74.707	86.8251	74.707	86.8218	74.707	86.8243	74.707	86.8205	74.707	86.8237	74.707	86.8195	74.707	86.8232	74.707	86.8188	74.707	86.8231	74.707	86.8186	74.707	86.8232	74.707	86.8188	74.707	86.8237	74.707	86.8195	74.707	86.8243	74.707	86.8205	74.707	86.8251	74.707	86.8218	74.707	86.826	74.707	86.8232	74.707	86.8267	74.707	86.8246	74.707	86.8273	74.707	86.8258	74.707	86.8275	74.707	86.8267	74.707	86.8273
77.6367	86.5994	77.6367	86.5981	77.6367	86.6005	77.6367	86.5967	77.6367	86.6015	77.6367	86.5951	77.6367	86.6022	77.6367	86.5935	77.6367	86.6029	77.6367	86.5919	77.6367	86.6034	77.6367	86.5906	77.6367	86.6038	77.6367	86.5895	77.6367	86.6041	77.6367	86.5888	77.6367	86.6043	77.6367	86.5886	77.6367	86.6044	77.6367	86.5888	77.6367	86.6043	77.6367	86.5895	77.6367	86.6041	77.6367	86.5906	77.6367	86.6038	77.6367	86.5919	77.6367	86.6034	77.6367	86.5935	77.6367	86.6029	77.6367	86.5951	77.6367	86.6022	77.6367	86.5967	77.6367	86.6015	77.6367	86.5981	77.6367	86.6005	77.6367	86.5994
79.1016	86.5106	79.1016	86.5116	79.1016	86.5094	79.1016	86.5123	79.1016	86.5081	79.1016	86.5127	79.1016	86.5066	79.1016	86.5129	79.1016	86.5052	79.1016	86.5129	79.1016	86.5039	79.1016	86.5128	79.1016	86.5029	79.1016	86.5127	79.1016	86.5021	79.1016	86.5126	79.1016	86.5016	79.1016	86.5125	79.1016	86.5014	79.1016	86.5126	79.1016	86.5016	79.1016	86.5127	79.1016	86.5021	79.1016	86.5128	79.1016	86.5029	79.1016	86.5129	79.1016	86.5039	79.1016	86.5129	79.1016	86.5052	79.1016	86.5127	79.1016	86.5066	79.1016	86.5123	79.1016	86.5081	79.1016	86.5116	79.1016	86.5094	79.1016	86.5106
82.0312	86.6299	82.0312	86.6284	82.0312	86.6308	82.0312	86.6263	82.0312	86.6311	82.0312	86.6238	82.0312	86.6307	82.0312	86.621	82.0312	86.63	82.0312	86.6183	82.0312	86.629	82.0312	86.6159	82.0312	86.6279	82.0312	86.6139	82.0312	86.627	82.0312	86.6127	82.0312	86.6264	82.0312	86.6123	82.0312	86.6262	82.0312	86.6127	82.0312	86.6264	82.0312	86.6139	82.0312	86.627	82.0312	86.6159	82.0312	86.6279	82.0312	86.6183	82.0312	86.629	82.0312	86.621	82.0312	86.63	82.0312	86.6238	82.0312	86.6307	82.0312	86.6263	82.0312	86.6311	82.0312	86.6284	82.0312	86.6308	82.0312	86.6299
84.9609	86.6375	84.9609	86.6351	84.9609	86.6391	84.9609	86.6321	84.9609	86.64	84.9609	86.6287	84.9609	86.6402	84.9609	86.6251	84.9609	86.6398	84.9609	86.6216	84.9609	86.6391	84.9609	86.6185	84.9609	86.6383	84.9609	86.6161	84.9609	86.6375	84.9609	86.6145	84.9609	86.6369	84.9609	86.614	84.9609	86.6368	84.9609	86.6145	84.9609	86.6369	84.9609	86.6161	84.9609	86.6375	84.9609	86.6185	84.9609	86.6383	84.9609	86.6216	84.9609	86.6391	84.9609	86.6251	84.9609	86.6398	84.9609	86.6287	84.9609	86.6402	84.9609	86.6321	84.9609	86.64	84.9609	86.6351	84.9609	86.6391	84.9609	86.6375
87.8906	86.4106	87.8906	86.4099	87.8906	86.4102	87.8906	86.4082	87.8906	86.4088	87.8906	86.4057	87.8906	86.4065	87.8906	86.4027	87.8906	86.4037	87.8906	86.3994	87.8906	86.4007	87.8906	86.3964	87.8906	86.3978	87.8906	86.394	87.8906	86.3955	87.8906	86.3924	87.8906	86.394	87.8906	86.3918	87.8906	86.3934	87.8906	86.3924	87.8906	86.394	87.8906	86.394	87.8906	86.3955	87.8906	86.3964	87.8906	86.3978	87.8906	86.3994	87.8906	86.4007	87.8906	86.4027	87.8906	86.4037	87.8906	86.4057	87.8906	86.4065	87.8906	86.4082	87.8906	86.4088	87.8906	86.4099	87.8906	86.4102	87.8906	86.4106
90.8203	86.4389	90.8203	86.438	90.8203	86.4384	90.8203	86.4358	90.8203	86.4365	90.8203	86.4326	90.8203	86.4335	90.8203	86.4286	90.8203	86.4297	90.8203	86.4244	90.8203	86.4257	90.8203	86.4204	90.8203	86.4219	90.8203	86.4172	90.8203	86.4188	90.8203	86.4152	90.8203	86.4167	90.8203	86.4144	90.8203	86.416	90.8203	86.4152	90.8203	86.4167	90.8203	86.4172	90.8203	86.4188	90.8203	86.4204	90.8203	86.4219	90.8203	86.4244	90.8203	86.4257	90.8203	86.4286	90.8203	86.4297	90.8203	86.4326	90.8203	86.4335	90.8203	86.4358	90.8203	86.4365	90.8203	86.438	90.8203	86.4384	90.8203	86.4389
95.2148	86.3607	95.2148	86.3558	95.2148	86.3657	95.2148	86.3511	95.2148	86.3706	95.2148	86.3466	95.2148	86.3753	95.2148	86.3425	95.2148	86.3798	95.2148	86.3389	95.2148	86.3838	95.2148	86.336	95.2148	86.3871	95.2148	86.3338	95.2148	86.3897	95.2148	86.3324	95.2148	86.3913	95.2148	86.332	95.2148	86.3918	95.2148	86.3324	95.2148	86.3913	95.2148	86.3338	95.2148	86.3897	95.2148	86.336	95.2148	86.3871	95.2148	86.3389	95.2148	86.3838	95.2148	86.3425	95.2148	86.3798	95.2148	86.3466	95.2148	86.3753	95.2148	86.3511	95.2148	86.3706	95.2148	86.3558	95.2148	86.3657	95.2148	86.3607
98.1445	86.0669	98.1445	86.0686	98.1445	86.0666	98.1445	86.0713	98.1445	86.0676	98.1445	86.0748	98.1445	86.0698	98.1445	86.0787	98.1445	86.0729	98.1445	86.0827	98.1445	86.0766	98.1445	86.0864	98.1445	86.0803	98.1445	86.0893	98.1445	86.0835	98.1445	86.0912	98.1445	86.0857	98.1445	86.0918	98.1445	86.0864	98.1445	86.0912	98.1445	86.0857	98.1445	86.0893	98.1445	86.0835	98.1445	86.0864	98.1445	86.0803	98.1445	86.0827	98.1445	86.0766	98.1445	86.0787	98.1445	86.0729	98.1445	86.0748	98.1445	86.0698	98.1445	86.0713	98.1445	86.0676	98.1445	86.0686	98.1445	86.0666	98.1445	86.0669
101.074	85.9997	101.074	86.0348	101.074	85.9649	101.074	86.069	101.074	85.9313	101.074	86.1013	101.074	85.9001	101.074	86.1307	101.074	85.8721	101.074	86.1562	101.074	85.8481	101.074	86.1769	101.074	85.8289	101.074	86.1923	101.074	85.8148	101.074	86.2017	101.074	85.8063	101.074	86.2049	101.074	85.8034	101.074	86.2017	101.074	85.8063	101.074	86.1923	101.074	85.8148	101.074	86.1769	101.074	85.8289	101.074	86.1562	101.074	85.8481	101.074	86.1307	101.074	85.8721	101.074	86.1013	101.074	85.9001	101.074	86.069	101.074	85.9313	101.074	86.0348	101.074	85.9649	101.074	85.9997
105.469	85.1786	105.469	85.2064	105.469	85.1516	105.469	85.2343	105.469	85.1261	105.469	85.2614	105.469	85.1025	105.469	85.2868	105.469	85.0815	105.469	85.3095	105.469	85.0636	105.469	85.3285	105.469	85.0492	105.469	85.3429	105.469	85.0386	105.469	85.3519	105.469	85.0321	105.469	85.355	105.469	85.0299	105.469	85.3519	105.469	85.0321	105.469	85.3429	105.469	85.0386	105.469	85.3285	105.469	85.0492	105.469	85.3095	105.469	85.0636	105.469	85.2868	105.469	85.0815	105.469	85.2614	105.469	85.1025	105.469	85.2343	105.469	85.1261	105.469	85.2064	105.469	85.1516	105.469	85.1786
108.398	85.1112	108.398	85.1093	108.398	85.1135	108.398	85.1076	108.398	85.1158	108.398	85.1065	108.398	85.1181	108.398	85.1058	108.398	85.1203	108.398	85.1056	108.398	85.1223	108.398	85.1057	108.398	85.1239	108.398	85.106	108.398	85.1252	108.398	85.1062	108.398	85.126	108.398	85.1063	108.398	85.1263	108.398	85.1062	108.398	85.126	108.398	85.106	108.398	85.1252	108.398	85.1057	108.398	85.1239	108.398	85.1056	108.398	85.1223	108.398	85.1058	108.398	85.1203	108.398	85.1065	108.398	85.1181	108.398	85.1076	108.398	85.1158	108.398	85.1093	108.398	85.1135	108.398	85.1112
112.793	84.9533	112.793	84.9438	112.793	84.962	112.793	84.9338	112.793	84.9695	112.793	84.9238	112.793	84.9757	112.793	84.9145	112.793	84.9805	112.793	84.9062	112.793	84.9842	112.793	84.8995	112.793	84.9869	112.793	84.8945	112.793	84.9886	112.793	84.8914	112.793	84.9896	112.793	84.8904	112.793	84.9899	112.793	84.8914	112.793	84.9896	112.793	84.8945	112.793	84.9886	112.793	84.8995	112.793	84.9869	112.793	84.9062	112.793	84.9842	112.793	84.9145	112.793	84.9805	112.793	84.9238	112.793	84.9757	112.793	84.9338	112.793	84.9695	112.793	84.9438	112.793	84.962	112.793	84.9533
117.188	85.0669	117.188	85.0455	117.188	85.0851	117.188	85.0217	117.188	85.0997	117.188	84.9967	117.188	85.1108	117.188	84.9719	117.188	85.1187	117.188	84.9489	117.188	85.1239	117.188	84.9292	117.188	85.1271	117.188	84.914	117.188	85.1289	117.188	84.9045	117.188	85.1297	117.188	84.9012	117.188	85.13	117.188	84.9045	117.188	85.1297	117.188	84.914	117.188	85.1289	117.188	84.9292	117.188	85.1271	117.188	84.9489	117.188	85.1239	117.188	84.9719	117.188	85.1187	117.188	84.9967	117.188	85.1108	117.188	85.0217	117.188	85.0997	117.188	85.0455	117.188	85.0851	117.188	85.0669
120.117	85.3471	120.117	85.3447	120.117	85.3459	120.117	85.3389	120.117	85.3411	120.117	85.3304	120.117	85.3335	120.117	85.3204	120.117	85.3239	120.117	85.31	120.117	85.3136	120.117	85.3003	120.117	85.3039	120.117	85.2926	120.117	85.296	120.117	85.2876	120.117	85.2908	120.117	85.2859	120.117	85.289	120.117	85.2876	120.117	85.2908	120.117	85.2926	120.117	85.296	120.117	85.3003	120.117	85.3039	120.117	85.31	120.117	85.3136	120.117	85.3204	120.117	85.3239	120.117	85.3304	120.117	85.3335	120.117	85.3389	120.117	85.3411	120.117	85.3447	120.117	85.3459	120.117	85.3471
124.512	85.5519	124.512	85.5402	124.512	85.5581	124.512	85.5236	124.512	85.5587	124.512	85.5034	124.512	85.5544	124.512	85.4814	124.512	85.5465	124.512	85.4596	124.512	85.5366	124.512	85.44	124.512	85.5264	124.512	85.4245	124.512	85.5177	124.512	85.4146	124.512	85.5118	124.512	85.4112	124.512	85.5098	124.512	85.4146	124.512	85.5118	124.512	85.4245	124.512	85.5177	124.512	85.44	124.512	85.5264	124.512	85.4596	124.512	85.5366	124.512	85.4814	124.512	85.5465	124.512	85.5034	124.512	85.5544	124.512	85.5236	124.512	85.5587	124.512	85.5402	124.512	85.5581	124.512	85.5519
128.906	85.4117	128.906	85.4063	128.906	85.4119	128.906	85.396	128.906	85.4071	128.906	85.3819	128.906	85.398	128.906	85.3655	128.906	85.3861	128.906	85.3484	128.906	85.373	128.906	85.3327	128.906	85.3604	128.906	85.3201	128.906	85.35	128.906	85.3118	128.906	85.3431	128.906	85.309	128.906	85.3408	128.906	85.3118	128.906	85.3431	128.906	85.3201	128.906	85.35	128.906	85.3327	128.906	85.3604	128.906	85.3484	128.906	85.373	128.906	85.3655	128.906	85.3861	128.906	85.3819	128.906	85.398	128.906	85.396	128.906	85.4071	128.906	85.4063	128.906	85.4119	128.906	85.4117
133.301	85.312	133.301	85.306	133.301	85.3132	133.301	85.2953	133.301	85.3095	133.301	85.2812	133.301	85.3019	133.301	85.2648	133.301	85.2915	133.301	85.248	133.301	85.2799	133.301	85.2326	133.301	85.2687	133.301	85.2202	133.301	85.2594	133.301	85.2122	133.301	85.2533	133.301	85.2094	133.301	85.2511	133.301	85.2122	133.301	85.2533	133.301	85.2202	133.301	85.2594	133.301	85.2326	133.301	85.2687	133.301	85.248	133.301	85.2799	133.301	85.2648	133.301	85.2915	133.301	85.2812	133.301	85.3019	133.301	85.2953	133.301	85.3095	133.301	85.306	133.301	85.3132	133.301	85.312
139.16	85.2053	139.16	85.1988	139.16	85.2067	139.16	85.1876	139.16	85.2031	139.16	85.1727	139.16	85.1951	139.16	85.1558	139.16	85.1841	139.16	85.1385	139.16	85.1717	139.16	85.1226	139.16	85.1595	139.16	85.1099	139.16	85.1493	139.16	85.1017	139.16	85.1426	139.16	85.0988	139.16	85.1403	139.16	85.1017	139.16	85.1426	139.16	85.1099	139.16	85.1493	139.16	85.1226	139.16	85.1595	139.16	85.1385	139.16	85.1717	139.16	85.1558	139.16	85.1841	139.16	85.1727	139.16	85.1951	139.16	85.1876	139.16	85.2031	139.16	85.1988	139.16	85.2067	139.16	85.2053
143.555	85.0916	143.555	85.0633	143.555	85.113	143.555	85.0292	143.555	85.127	143.555	84.9914	143.555	85.1341	143.555	84.9523	143.555	85.1354	143.555	84.9148	143.555	85.1326	143.555	84.8818	143.555	85.1275	143.555	84.856	143.555	85.1222	143.555	84.8396	143.555	85.1182	143.555	84.834	143.555	85.1168	143.555	84.8396	143.555	85.1182	143.555	84.856	143.555	85.1222	143.555	84.8818	143.555	85.1275	143.555	84.9148	143.555	85.1326	143.555	84.9523	143.555	85.1354	143.555	84.9914	143.555	85.1341	143.555	85.0292	143.555	85.127	143.555	85.0633	143.555	85.113	143.555	85.0916
147.949	84.8819	147.949	84.874	147.949	84.8883	147.949	84.8648	147.949	84.893	147.949	84.8549	147.949	84.8961	147.949	84.8448	147.949	84.8978	147.949	84.8352	147.949	84.8983	147.949	84.8267	147.949	84.898	147.949	84.8201	147.949	84.8974	147.949	84.8159	147.949	84.8968	147.949	84.8144	147.949	84.8966	147.949	84.8159	147.949	84.8968	147.949	84.8201	147.949	84.8974	147.949	84.8267	147.949	84.898	147.949	84.8352	147.949	84.8983	147.949	84.8448	147.949	84.8978	147.949	84.8549	147.949	84.8961	147.949	84.8648	147.949	84.893	147.949	84.874	147.949	84.8883	147.949	84.8819
153.809	84.5684	153.809	84.5851	153.809	84.5513	153.809	84.6006	153.809	84.5343	153.809	84.6147	153.809	84.5181	153.809	84.627	153.809	84.5034	153.809	84.6372	153.809	84.4907	153.809	84.6452	153.809	84.4804	153.809	84.6509	153.809	84.4729	153.809	84.6544	153.809	84.4683	153.809	84.6555	153.809	84.4668	153.809	84.6544	153.809	84.4683	153.809	84.6509	153.809	84.4729	153.809	84.6452	153.809	84.4804	153.809	84.6372	153.809	84.4907	153.809	84.627	153.809	84.5034	153.809	84.6147	153.809	84.5181	153.809	84.6006	153.809	84.5343	153.809	84.5851	153.809	84.5513	153.809	84.5684
159.668	84.4632	159.668	84.4602	159.668	84.4629	159.668	84.4544	159.668	84.4595	159.668	84.4465	159.668	84.4534	159.668	84.4374	159.668	84.4454	159.668	84.4283	159.668	84.4368	159.668	84.42	159.668	84.4285	159.668	84.4135	159.668	84.4217	159.668	84.4093	159.668	84.4173	159.668	84.4079	159.668	84.4158	159.668	84.4093	159.668	84.4173	159.668	84.4135	159.668	84.4217	159.668	84.42	159.668	84.4285	159.668	84.4283	159.668	84.4368	159.668	84.4374	159.668	84.4454	159.668	84.4465	159.668	84.4534	159.668	84.4544	159.668	84.4595	159.668	84.4602	159.668	84.4629	159.668	84.4632
165.527	84.4731	165.527	84.4664	165.527	84.4757	165.527	84.4563	165.527	84.4743	165.527	84.4436	165.527	84.4693	165.527	84.4296	165.527	84.4618	165.527	84.4158	165.527	84.4531	165.527	84.4035	165.527	84.4446	165.527	84.3939	165.527	84.4374	165.527	84.3878	165.527	84.4326	165.527	84.3857	165.527	84.431	165.527	84.3878	165.527	84.4326	165.527	84.3939	165.527	84.4374	165.527	84.4035	165.527	84.4446	165.527	84.4158	165.527	84.4531	165.527	84.4296	165.527	84.4618	165.527	84.4436	165.527	84.4693	165.527	84.4563	165.527	84.4743	165.527	84.4664	165.527	84.4757	165.527	84.4731
171.387	84.4515	171.387	84.4359	171.387	84.4606	171.387	84.4146	171.387	84.4632	171.387	84.3894	171.387	84.46	171.387	84.3624	171.387	84.4524	171.387	84.3361	171.387	84.4424	171.387	84.3129	171.387	84.4319	171.387	84.2947	171.387	84.4228	171.387	84.2831	171.387	84.4167	171.387	84.2791	171.387	84.4146	171.387	84.2831	171.387	84.4167	171.387	84.2947	171.387	84.4228	171.387	84.3129	171.387	84.4319	171.387	84.3361	171.387	84.4424	171.387	84.3624	171.387	84.4524	171.387	84.3894	171.387	84.46	171.387	84.4146	171.387	84.4632	171.387	84.4359	171.387	84.4606	171.387	84.4515
177.246	84.6228	177.246	84.6205	177.246	84.6172	177.246	84.6106	177.246	84.6045	177.246	84.5947	177.246	84.586	177.246	84.5747	177.246	84.564	177.246	84.5532	177.246	84.541	177.246	84.533	177.246	84.5198	177.246	84.5165	177.246	84.5027	177.246	84.5058	177.246	84.4916	177.246	84.5021	177.246	84.4878	177.246	84.5058	177.246	84.4916	177.246	84.5165	177.246	84.5027	177.246	84.533	177.246	84.5198	177.246	84.5532	177.246	84.541	177.246	84.5747	177.246	84.564	177.246	84.5947	177.246	84.586	177.246	84.6106	177.246	84.6045	177.246	84.6205	177.246	84.6172	177.246	84.6228
183.105	84.7394	183.105	84.7398	183.105	84.7312	183.105	84.7327	183.105	84.7159	183.105	84.7194	183.105	84.6952	183.105	84.7017	183.105	84.6712	183.105	84.6823	183.105	84.6466	183.105	84.6637	183.105	84.624	183.105	84.6483	183.105	84.6059	183.105	84.6383	183.105	84.5942	183.105	84.6348	183.105	84.5902	183.105	84.6383	183.105	84.5942	183.105	84.6483	183.105	84.6059	183.105	84.6637	183.105	84.624	183.105	84.6823	183.105	84.6466	183.105	84.7017	183.105	84.6712	183.105	84.7194	183.105	84.6952	183.105	84.7327	183.105	84.7159	183.105	84.7398	183.105	84.7312	183.105	84.7394
188.965	84.4956	188.965	84.4951	188.965	84.4894	188.965	84.4879	188.965	84.4771	188.965	84.4749	188.965	84.4603	188.965	84.458	188.965	84.4411	188.965	84.4395	188.965	84.4216	188.965	84.4217	188.965	84.4038	188.965	84.4071	188.965	84.3898	188.965	84.3976	188.965	84.3808	188.965	84.3942	188.965	84.3777	188.965	84.3976	188.965	84.3808	188.965	84.4071	188.965	84.3898	188.965	84.4217	188.965	84.4038	188.965	84.4395	188.965	84.4216	188.965	84.458	188.965	84.4411	188.965	84.4749	188.965	84.4603	188.965	84.4879	188.965	84.4771	188.965	84.4951	188.965	84.4894	188.965	84.4956
196.289	84.2324	196.289	84.2324	196.289	84.2249	196.289	84.225	196.289	84.2106	196.289	84.2115	196.289	84.1914	196.289	84.1941	196.289	84.1695	196.289	84.1752	196.289	84.1475	196.289	84.1574	196.289	84.1278	196.289	84.143	196.289	84.1123	196.289	84.1337	196.289	84.1024	196.289	84.1305	196.289	84.0991	196.289	84.1337	196.289	84.1024	196.289	84.143	196.289	84.1123	196.289	84.1574	196.289	84.1278	196.289	84.1752	196.289	84.1475	196.289	84.1941	196.289	84.1695	196.289	84.2115	196.289	84.1914	196.289	84.225	196.289	84.2106	196.289	84.2324	196.289	84.2249	196.289	84.2324
203.613	84.812	203.613	84.8126	203.613	84.7972	203.613	84.7997	203.613	84.7698	203.613	84.7753	203.613	84.733	203.613	84.7433	203.613	84.6908	203.613	84.7081	203.613	84.648	203.613	84.6745	203.613	84.6092	203.613	84.6471	203.613	84.5784	203.613	84.6291	203.613	84.5587	203.613	84.6229	203.613	84.5519	203.613	84.6291	203.613	84.5587	203.613	84.6471	203.613	84.5784	203.613	84.6745	203.613	84.6092	203.613	84.7081	203.613	84.648	203.613	84.7433	203.613	84.6908	203.613	84.7753	203.613	84.733	203.613	84.7997	203.613	84.7698	203.613	84.8126	203.613	84.7972	203.613	84.812
210.938	84.8144	210.938	84.8069	210.938	84.808	210.938	84.7864	210.938	84.7888	210.938	84.7555	210.938	84.7596	210.938	84.7181	210.938	84.7243	210.938	84.6788	210.938	84.6875	210.938	84.6423	210.938	84.6535	210.938	84.6128	210.938	84.6264	210.938	84.5937	210.938	84.609	210.938	84.5871	210.938	84.603	210.938	84.5937	210.938	84.609	210.938	84.6128	210.938	84.6264	210.938	84.6423	210.938	84.6535	210.938	84.6788	210.938	84.6875	210.938	84.7181	210.938	84.7243	210.938	84.7555	210.938	84.7596	210.938	84.7864	210.938	84.7888	210.938	84.8069	210.938	84.808	210.938	84.8144
218.262	84.7845	218.262	84.7791	218.262	84.7787	218.262	84.7631	218.262	84.7626	218.262	84.7387	218.262	84.7383	218.262	84.7089	218.262	84.7093	218.262	84.6776	218.262	84.6793	218.262	84.6485	218.262	84.6518	218.262	84.625	218.262	84.6299	218.262	84.6099	218.262	84.6158	218.262	84.6046	218.262	84.611	218.262	84.6099	218.262	84.6158	218.262	84.625	218.262	84.6299	218.262	84.6485	218.262	84.6518	218.262	84.6776	218.262	84.6793	218.262	84.7089	218.262	84.7093	218.262	84.7387	218.262	84.7383	218.262	84.7631	218.262	84.7626	218.262	84.7791	218.262	84.7787	218.262	84.7845
225.586	84.6827	225.586	84.6803	225.586	84.6724	225.586	84.6658	225.586	84.6509	225.586	84.6413	225.586	84.6208	225.586	84.6103	225.586	84.5861	225.586	84.577	225.586	84.5512	225.586	84.5457	225.586	84.5198	225.586	84.5202	225.586	84.4952	225.586	84.5037	225.586	84.4797	225.586	84.4979	225.586	84.4744	225.586	84.5037	225.586	84.4797	225.586	84.5202	225.586	84.4952	225.586	84.5457	225.586	84.5198	225.586	84.577	225.586	84.5512	225.586	84.6103	225.586	84.5861	225.586	84.6413	225.586	84.6208	225.586	84.6658	225.586	84.6509	225.586	84.6803	225.586	84.6724	225.586	84.6827
232.91	84.7071	232.91	84.7276	232.91	84.6682	232.91	84.7293	232.91	84.6138	232.91	84.7147	232.91	84.549	232.91	84.6883	232.91	84.4802	232.91	84.6557	232.91	84.4143	232.91	84.623	232.91	84.3571	232.91	84.5954	232.91	84.3133	232.91	84.5771	232.91	84.2859	232.91	84.5707	232.91	84.2766	232.91	84.5771	232.91	84.2859	232.91	84.5954	232.91	84.3133	232.91	84.623	232.91	84.3571	232.91	84.6557	232.91	84.4143	232.91	84.6883	232.91	84.4802	232.91	84.7147	232.91	84.549	232.91	84.7293	232.91	84.6138	232.91	84.7276	232.91	84.6682	232.91	84.7071
241.699	85.0271	241.699	85.0273	241.699	84.9994	241.699	85.002	241.699	84.9461	241.699	84.9565	241.699	84.8724	241.699	84.898	241.699	84.7866	241.699	84.8352	241.699	84.6985	241.699	84.7762	241.699	84.6181	241.699	84.7285	241.699	84.554	241.699	84.6975	241.699	84.5129	241.699	84.6868	241.699	84.4988	241.699	84.6975	241.699	84.5129	241.699	84.7285	241.699	84.554	241.699	84.7762	241.699	84.6181	241.699	84.8352	241.699	84.6985	241.699	84.898	241.699	84.7866	241.699	84.9565	241.699	84.8724	241.699	85.002	241.699	84.9461	241.699	85.0273	241.699	84.9994	241.699	85.0271
250.488	85.0357	250.488	85.0531	250.488	84.9914	250.488	85.0451	250.488	84.9221	250.488	85.0162	250.488	84.8332	250.488	84.973	250.488	84.733	250.488	84.9235	250.488	84.6315	250.488	84.8753	250.488	84.5393	250.488	84.8355	250.488	84.4658	250.488	84.8094	250.488	84.4185	250.488	84.8003	250.488	84.4022	250.488	84.8094	250.488	84.4185	250.488	84.8355	250.488	84.4658	250.488	84.8753	250.488	84.5393	250.488	84.9235	250.488	84.6315	250.488	84.973	250.488	84.733	250.488	85.0162	250.488	84.8332	250.488	85.0451	250.488	84.9221	250.488	85.0531	250.488	84.9914	250.488	85.0357
259.277	85.7505	259.277	85.7681	259.277	85.697	259.277	85.7498	259.277	85.6117	259.277	85.7003	259.277	85.5025	259.277	85.6285	259.277	85.3798	259.277	85.5457	259.277	85.2558	259.277	85.4647	259.277	85.1428	259.277	85.3971	259.277	85.0522	259.277	85.3525	259.277	84.9937	259.277	85.3369	259.277	84.9735	259.277	85.3525	259.277	84.9937	259.277	85.3971	259.277	85.0522	259.277	85.4647	259.277	85.1428	259.277	85.5457	259.277	85.2558	259.277	85.6285	259.277	85.3798	259.277	85.7003	259.277	85.5025	259.277	85.7498	259.277	85.6117	259.277	85.7681	259.277	85.697	259.277	85.7505
268.066	86.346	268.066	86.3356	268.066	86.3155	268.066	86.2853	268.066	86.248	268.066	86.2017	268.066	86.1522	268.066	86.0956	268.066	86.0401	268.066	85.9808	268.066	85.9249	268.066	85.8721	268.066	85.8199	268.066	85.7833	268.066	85.7362	268.066	85.7252	268.066	85.6825	268.066	85.7051	268.066	85.6641	268.066	85.7252	268.066	85.6825	268.066	85.7833	268.066	85.7362	268.066	85.8721	268.066	85.8199	268.066	85.9808	268.066	85.9249	268.066	86.0956	268.066	86.0401	268.066	86.2017	268.066	86.1522	268.066	86.2853	268.066	86.248	268.066	86.3356	268.066	86.3155	268.066	86.346
276.855	86.331	276.855	86.3076	276.855	86.3131	276.855	86.2448	276.855	86.2573	276.855	86.15	276.855	86.1717	276.855	86.0348	276.855	86.0681	276.855	85.9132	276.855	85.9599	276.855	85.7999	276.855	85.8602	276.855	85.7083	276.855	85.7805	276.855	85.6489	276.855	85.7292	276.855	85.6283	276.855	85.7116	276.855	85.6489	276.855	85.7292	276.855	85.7083	276.855	85.7805	276.855	85.7999	276.855	85.8602	276.855	85.9132	276.855	85.9599	276.855	86.0348	276.855	86.0681	276.855	86.15	276.855	86.1717	276.855	86.2448	276.855	86.2573	276.855	86.3076	276.855	86.3131	276.855	86.331
287.109	86.4873	287.109	86.4523	287.109	86.4811	287.109	86.3803	287.109	86.4348	287.109	86.2803	287.109	86.3552	287.109	86.1645	287.109	86.2536	287.109	86.0462	287.109	86.1439	287.109	85.9388	287.109	86.0408	287.109	85.8534	287.109	85.9572	287.109	85.7987	287.109	85.903	287.109	85.7799	287.109	85.8842	287.109	85.7987	287.109	85.903	287.109	85.8534	287.109	85.9572	287.109	85.9388	287.109	86.0408	287.109	86.0462	287.109	86.1439	287.109	86.1645	287.109	86.2536	287.109	86.2803	287.109	86.3552	287.109	86.3803	287.109	86.4348	287.109	86.4523	287.109	86.4811	287.109	86.4873
297.363	86.5636	297.363	86.5027	297.363	86.5798	297.363	86.4032	297.363	86.5519	297.363	86.2756	297.363	86.4864	297.363	86.1342	297.363	86.395	297.363	85.994	297.363	86.2923	297.363	85.8692	297.363	86.1937	297.363	85.7716	297.363	86.113	297.363	85.7097	297.363	86.0604	297.363	85.6885	297.363	86.0422	297.363	85.7097	297.363	86.0604	297.363	85.7716	297.363	86.113	297.363	85.8692	297.363	86.1937	297.363	85.994	297.363	86.2923	297.363	86.1342	297.363	86.395	297.363	86.2756	297.363	86.4864	297.363	86.4032	297.363	86.5519	297.363	86.5027	297.363	86.5798	297.363	86.5636
307.617	86.824	307.617	86.7551	307.617	86.85	307.617	86.6518	307.617	86.8301	307.617	86.526	307.617	86.7683	307.617	86.3913	307.617	86.6749	307.617	86.2612	307.617	86.5647	307.617	86.1471	307.617	86.4554	307.617	86.0585	307.617	86.3635	307.617	86.0025	307.617	86.3027	307.617	85.9833	307.617	86.2814	307.617	86.0025	307.617	86.3027	307.617	86.0585	307.617	86.3635	307.617	86.1471	307.617	86.4554	307.617	86.2612	307.617	86.5647	307.617	86.3913	307.617	86.6749	307.617	86.526	307.617	86.7683	307.617	86.6518	307.617	86.8301	307.617	86.7551	307.617	86.85	307.617	86.824
319.336	87.069	319.336	87.0222	319.336	87.0761	319.336	86.9427	319.336	87.0415	319.336	86.84	319.336	86.968	319.336	86.7259	319.336	86.8642	319.336	86.6121	319.336	86.7436	319.336	86.51	319.336	86.6231	319.336	86.4295	319.336	86.5204	319.336	86.3779	319.336	86.4515	319.336	86.3602	319.336	86.4272	319.336	86.3779	319.336	86.4515	319.336	86.4295	319.336	86.5204	319.336	86.51	319.336	86.6231	319.336	86.6121	319.336	86.7436	319.336	86.7259	319.336	86.8642	319.336	86.84	319.336	86.968	319.336	86.9427	319.336	87.0415	319.336	87.0222	319.336	87.0761	319.336	87.069
329.59	87.2259	329.59	87.1343	329.59	87.2707	329.59	87.0044	329.59	87.2665	329.59	86.8492	329.59	87.2173	329.59	86.6848	329.59	87.133	329.59	86.5274	329.59	87.0283	329.59	86.3914	329.59	86.9206	329.59	86.2876	329.59	86.8276	329.59	86.223	329.59	86.7648	329.59	86.2011	329.59	86.7426	329.59	86.223	329.59	86.7648	329.59	86.2876	329.59	86.8276	329.59	86.3914	329.59	86.9206	329.59	86.5274	329.59	87.0283	329.59	86.6848	329.59	87.133	329.59	86.8492	329.59	87.2173	329.59	87.0044	329.59	87.2665	329.59	87.1343	329.59	87.2707	329.59	87.2259
341.309	87.786	341.309	87.683	341.309	87.8292	341.309	87.5301	341.309	87.8096	341.309	87.3432	341.309	87.7327	341.309	87.1413	341.309	87.6114	341.309	86.9447	341.309	87.465	341.309	86.7718	341.309	87.3164	341.309	86.6377	341.309	87.1893	341.309	86.5531	341.309	87.1038	341.309	86.5242	341.309	87.0736	341.309	86.5531	341.309	87.1038	341.309	86.6377	341.309	87.1893	341.309	86.7718	341.309	87.3164	341.309	86.9447	341.309	87.465	341.309	87.1413	341.309	87.6114	341.309	87.3432	341.309	87.7327	341.309	87.5301	341.309	87.8096	341.309	87.683	341.309	87.8292	341.309	87.786
353.027	87.9489	353.027	87.9006	353.027	87.9408	353.027	87.8002	353.027	87.8784	353.027	87.658	353.027	87.7699	353.027	87.4891	353.027	87.6287	353.027	87.3124	353.027	87.4726	353.027	87.1479	353.027	87.3218	353.027	87.0147	353.027	87.1962	353.027	86.9281	353.027	87.113	353.027	86.8981	353.027	87.0838	353.027	86.9281	353.027	87.113	353.027	87.0147	353.027	87.1962	353.027	87.1479	353.027	87.3218	353.027	87.3124	353.027	87.4726	353.027	87.4891	353.027	87.6287	353.027	87.658	353.027	87.7699	353.027	87.8002	353.027	87.8784	353.027	87.9006	353.027	87.9408	353.027	87.9489
366.211	87.8448	366.211	87.8161	366.211	87.8217	366.211	87.7377	366.211	87.7511	366.211	87.6172	366.211	87.6422	366.211	87.4678	366.211	87.5087	366.211	87.3067	366.211	87.3668	366.211	87.1532	366.211	87.2337	366.211	87.0266	366.211	87.1254	366.211	86.9433	366.211	87.0547	366.211	86.9142	366.211	87.0302	366.211	86.9433	366.211	87.0547	366.211	87.0266	366.211	87.1254	366.211	87.1532	366.211	87.2337	366.211	87.3067	366.211	87.3668	366.211	87.4678	366.211	87.5087	366.211	87.6172	366.211	87.6422	366.211	87.7377	366.211	87.7511	366.211	87.8161	366.211	87.8217	366.211	87.8448
379.395	87.93	379.395	87.9046	379.395	87.8942	379.395	87.8228	379.395	87.7996	379.395	87.6958	379.395	87.6561	379.395	87.5393	379.395	87.4801	379.395	87.3723	379.395	87.2929	379.395	87.2148	379.395	87.1171	379.395	87.086	379.395	86.9741	379.395	87.0016	379.395	86.8811	379.395	86.9722	379.395	86.8488	379.395	87.0016	379.395	86.8811	379.395	87.086	379.395	86.9741	379.395	87.2148	379.395	87.1171	379.395	87.3723	379.395	87.2929	379.395	87.5393	379.395	87.4801	379.395	87.6958	379.395	87.6561	379.395	87.8228	379.395	87.7996	379.395	87.9046	379.395	87.8942	379.395	87.93
392.578	87.8856	392.578	87.8532	392.578	87.8539	392.578	87.7604	392.578	87.7616	392.578	87.6179	392.578	87.6194	392.578	87.442	392.578	87.4443	392.578	87.253	392.578	87.2574	392.578	87.0733	392.578	87.0814	392.578	86.9253	392.578	86.9377	392.578	86.8278	392.578	86.8439	392.578	86.7938	392.578	86.8113	392.578	86.8278	392.578	86.8439	392.578	86.9253	392.578	86.9377	392.578	87.0733	392.578	87.0814	392.578	87.253	392.578	87.2574	392.578	87.442	392.578	87.4443	392.578	87.6179	392.578	87.6194	392.578	87.7604	392.578	87.7616	392.578	87.8532	392.578	87.8539	392.578	87.8856
405.762	87.7152	405.762	87.6736	405.762	87.7064	405.762	87.5883	405.762	87.6466	405.762	87.4701	405.762	87.5415	405.762	87.3321	405.762	87.4038	405.762	87.1891	405.762	87.2513	405.762	87.0564	405.762	87.1044	405.762	86.9488	405.762	86.9829	405.762	86.8785	405.762	86.9029	405.762	86.8541	405.762	86.875	405.762	86.8785	405.762	86.9029	405.762	86.9488	405.762	86.9829	405.762	87.0564	405.762	87.1044	405.762	87.1891	405.762	87.2513	405.762	87.3321	405.762	87.4038	405.762	87.4701	405.762	87.5415	405.762	87.5883	405.762	87.6466	405.762	87.6736	405.762	87.7064	405.762	87.7152
420.41	87.5891	420.41	87.5811	420.41	87.5406	420.41	87.5172	420.41	87.4418	420.41	87.4045	420.41	87.3041	420.41	87.2568	420.41	87.1432	420.41	87.093	420.41	86.9772	420.41	86.9347	420.41	86.8243	420.41	86.8033	420.41	86.7013	420.41	86.7167	420.41	86.6216	420.41	86.6864	420.41	86.594	420.41	86.7167	420.41	86.6216	420.41	86.8033	420.41	86.7013	420.41	86.9347	420.41	86.8243	420.41	87.093	420.41	86.9772	420.41	87.2568	420.41	87.1432	420.41	87.4045	420.41	87.3041	420.41	87.5172	420.41	87.4418	420.41	87.5811	420.41	87.5406	420.41	87.5891
435.059	87.4326	435.059	87.4259	435.059	87.3779	435.059	87.3531	435.059	87.2751	435.059	87.2205	435.059	87.143	435.059	87.045	435.059	87.0011	435.059	86.8509	435.059	86.8664	435.059	86.6657	435.059	86.7516	435.059	86.5144	435.059	86.6649	435.059	86.416	435.059	86.6111	435.059	86.382	435.059	86.5929	435.059	86.416	435.059	86.6111	435.059	86.5144	435.059	86.6649	435.059	86.6657	435.059	86.7516	435.059	86.8509	435.059	86.8664	435.059	87.045	435.059	87.0011	435.059	87.2205	435.059	87.143	435.059	87.3531	435.059	87.2751	435.059	87.4259	435.059	87.3779	435.059	87.4326
451.172	87.3133	451.172	87.3721	451.172	87.2183	451.172	87.385	451.172	87.1017	451.172	87.3509	451.172	86.9792	451.172	87.2773	451.172	86.8632	451.172	87.1794	451.172	86.7614	451.172	87.076	451.172	86.6781	451.172	86.9862	451.172	86.6158	451.172	86.9256	451.172	86.5768	451.172	86.9043	451.172	86.5635	451.172	86.9256	451.172	86.5768	451.172	86.9862	451.172	86.6158	451.172	87.076	451.172	86.6781	451.172	87.1794	451.172	86.7614	451.172	87.2773	451.172	86.8632	451.172	87.3509	451.172	86.9792	451.172	87.385	451.172	87.1017	451.172	87.3721	451.172	87.2183	451.172	87.3133
465.82	87.0602	465.82	87.1027	465.82	86.9944	465.82	87.1132	465.82	86.9172	465.82	87.0899	465.82	86.84	465.82	87.0388	465.82	86.7699	465.82	86.9719	465.82	86.7101	465.82	86.9035	465.82	86.6612	465.82	86.8461	465.82	86.6239	465.82	86.8085	465.82	86.6001	465.82	86.7956	465.82	86.5918	465.82	86.8085	465.82	86.6001	465.82	86.8461	465.82	86.6239	465.82	86.9035	465.82	86.6612	465.82	86.9719	465.82	86.7101	465.82	87.0388	465.82	86.7699	465.82	87.0899	465.82	86.84	465.82	87.1132	465.82	86.9172	465.82	87.1027	465.82	86.9944	465.82	87.0602
483.398	87.0214	483.398	87.0549	483.398	86.9513	483.398	87.0491	483.398	86.8539	483.398	87.0088	483.398	86.7414	483.398	86.9452	483.398	86.6264	483.398	86.8729	483.398	86.5198	483.398	86.8055	483.398	86.4295	483.398	86.7528	483.398	86.3613	483.398	86.7201	483.398	86.319	483.398	86.709	483.398	86.3046	483.398	86.7201	483.398	86.319	483.398	86.7528	483.398	86.3613	483.398	86.8055	483.398	86.4295	483.398	86.8729	483.398	86.5198	483.398	86.9452	483.398	86.6264	483.398	87.0088	483.398	86.7414	483.398	87.0491	483.398	86.8539	483.398	87.0549	483.398	86.9513	483.398	87.0214
499.512	87.29	499.512	87.2908	499.512	87.2331	499.512	87.2358	499.512	87.1283	499.512	87.1338	499.512	86.9897	499.512	87.0003	499.512	86.835	499.512	86.8548	499.512	86.6817	499.512	86.7167	499.512	86.546	499.512	86.6039	499.512	86.4404	499.512	86.5302	499.512	86.3737	499.512	86.5046	499.512	86.3509	499.512	86.5302	499.512	86.3737	499.512	86.6039	499.512	86.4404	499.512	86.7167	499.512	86.546	499.512	86.8548	499.512	86.6817	499.512	87.0003	499.512	86.835	499.512	87.1338	499.512	86.9897	499.512	87.2358	499.512	87.1283	499.512	87.2908	499.512	87.2331	499.512	87.29
517.09	87.1545	517.09	87.188	517.09	87.094	517.09	87.1834	517.09	87.0185	517.09	87.1367	517.09	86.935	517.09	87.0542	517.09	86.8437	517.09	86.9499	517.09	86.7437	517.09	86.8425	517.09	86.6392	517.09	86.7501	517.09	86.5433	517.09	86.6881	517.09	86.4746	517.09	86.6663	517.09	86.4495	517.09	86.6881	517.09	86.4746	517.09	86.7501	517.09	86.5433	517.09	86.8425	517.09	86.6392	517.09	86.9499	517.09	86.7437	517.09	87.0542	517.09	86.8437	517.09	87.1367	517.09	86.935	517.09	87.1834	517.09	87.0185	517.09	87.188	517.09	87.094	517.09	87.1545
536.133	87.3063	536.133	87.3424	536.133	87.2365	536.133	87.3408	536.133	87.1349	536.133	87.2972	536.133	87.0022	536.133	87.2114	536.133	86.8433	536.133	87.0914	536.133	86.6711	536.133	86.9549	536.133	86.5051	536.133	86.8277	536.133	86.3675	536.133	86.7373	536.133	86.2769	536.133	86.7046	536.133	86.2453	536.133	86.7373	536.133	86.2769	536.133	86.8277	536.133	86.3675	536.133	86.9549	536.133	86.5051	536.133	87.0914	536.133	86.6711	536.133	87.2114	536.133	86.8433	536.133	87.2972	536.133	87.0022	536.133	87.3408	536.133	87.1349	536.133	87.3424	536.133	87.2365	536.133	87.3063
555.176	87.1206	555.176	87.1152	555.176	87.115	555.176	87.0984	555.176	87.0875	555.176	87.0587	555.176	87.024	555.176	86.9823	555.176	86.9181	555.176	86.8651	555.176	86.7775	555.176	86.7199	555.176	86.6231	555.176	86.5762	555.176	86.4834	555.176	86.4699	555.176	86.386	555.176	86.4306	555.176	86.3512	555.176	86.4699	555.176	86.386	555.176	86.5762	555.176	86.4834	555.176	86.7199	555.176	86.6231	555.176	86.8651	555.176	86.7775	555.176	86.9823	555.176	86.9181	555.176	87.0587	555.176	87.024	555.176	87.0984	555.176	87.0875	555.176	87.1152	555.176	87.115	555.176	87.1206
574.219	87.4588	574.219	87.4043	574.219	87.475	574.219	87.3254	574.219	87.4354	574.219	87.226	574.219	87.3305	574.219	87.1038	574.219	87.167	574.219	86.9596	574.219	86.9686	574.219	86.8053	574.219	86.7687	574.219	86.6644	574.219	86.6007	574.219	86.5647	574.219	86.4901	574.219	86.5286	574.219	86.4516	574.219	86.5647	574.219	86.4901	574.219	86.6644	574.219	86.6007	574.219	86.8053	574.219	86.7687	574.219	86.9596	574.219	86.9686	574.219	87.1038	574.219	87.167	574.219	87.226	574.219	87.3305	574.219	87.3254	574.219	87.4354	574.219	87.4043	574.219	87.475	574.219	87.4588
594.727	87.8955	594.727	87.8606	594.727	87.8693	594.727	87.776	594.727	87.7665	594.727	87.6441	594.727	87.5815	594.727	87.4648	594.727	87.3296	594.727	87.2481	594.727	87.0474	594.727	87.0196	594.727	86.7806	594.727	86.8167	594.727	86.5688	594.727	86.677	594.727	86.4356	594.727	86.6273	594.727	86.3906	594.727	86.677	594.727	86.4356	594.727	86.8167	594.727	86.5688	594.727	87.0196	594.727	86.7806	594.727	87.2481	594.727	87.0474	594.727	87.4648	594.727	87.3296	594.727	87.6441	594.727	87.5815	594.727	87.776	594.727	87.7665	594.727	87.8606	594.727	87.8693	594.727	87.8955
615.234	87.1768	615.234	87.1707	615.234	87.1538	615.234	87.1289	615.234	87.0996	615.234	87.0404	615.234	87.0089	615.234	86.9021	615.234	86.8828	615.234	86.7278	615.234	86.7334	615.234	86.5468	615.234	86.5816	615.234	86.3929	615.234	86.4511	615.234	86.2917	615.234	86.3631	615.234	86.2568	615.234	86.3321	615.234	86.2917	615.234	86.3631	615.234	86.3929	615.234	86.4511	615.234	86.5468	615.234	86.5816	615.234	86.7278	615.234	86.7334	615.234	86.9021	615.234	86.8828	615.234	87.0404	615.234	87.0089	615.234	87.1289	615.234	87.0996	615.234	87.1707	615.234	87.1538	615.234	87.1768
637.207	87.1651	637.207	87.1761	637.207	87.093	637.207	87.1323	637.207	86.9589	637.207	87.0416	637.207	86.7742	637.207	86.9176	637.207	86.5649	637.207	86.7824	637.207	86.362	637.207	86.6624	637.207	86.1909	637.207	86.5764	637.207	86.0654	637.207	86.5286	637.207	85.99	637.207	86.5139	637.207	85.965	637.207	86.5286	637.207	85.99	637.207	86.5764	637.207	86.0654	637.207	86.6624	637.207	86.1909	637.207	86.7824	637.207	86.362	637.207	86.9176	637.207	86.5649	637.207	87.0416	637.207	86.7742	637.207	87.1323	637.207	86.9589	637.207	87.1761	637.207	87.093	637.207	87.1651
659.18	86.7913	659.18	86.889	659.18	86.6591	659.18	86.9206	659.18	86.521	659.18	86.873	659.18	86.3882	659.18	86.7626	659.18	86.2581	659.18	86.6272	659.18	86.1258	659.18	86.5056	659.18	85.9942	659.18	86.4197	659.18	85.8772	659.18	86.3726	659.18	85.795	659.18	86.3581	659.18	85.7653	659.18	86.3726	659.18	85.795	659.18	86.4197	659.18	85.8772	659.18	86.5056	659.18	85.9942	659.18	86.6272	659.18	86.1258	659.18	86.7626	659.18	86.2581	659.18	86.873	659.18	86.3882	659.18	86.9206	659.18	86.521	659.18	86.889	659.18	86.6591	659.18	86.7913
682.617	86.6637	682.617	86.7035	682.617	86.5641	682.617	86.6606	682.617	86.4424	682.617	86.5411	682.617	86.3273	682.617	86.3755	682.617	86.2238	682.617	86.1998	682.617	86.1189	682.617	86.0398	682.617	86.0027	682.617	85.9106	682.617	85.8849	682.617	85.8249	682.617	85.7936	682.617	85.7945	682.617	85.7589	682.617	85.8249	682.617	85.7936	682.617	85.9106	682.617	85.8849	682.617	86.0398	682.617	86.0027	682.617	86.1998	682.617	86.1189	682.617	86.3755	682.617	86.2238	682.617	86.5411	682.617	86.3273	682.617	86.6606	682.617	86.4424	682.617	86.7035	682.617	86.5641	682.617	86.6637
707.52	86.4422	707.52	86.5512	707.52	86.3092	707.52	86.598	707.52	86.1933	707.52	86.5685	707.52	86.109	707.52	86.4724	707.52	86.0352	707.52	86.3315	707.52	85.9387	707.52	86.1712	707.52	85.8057	707.52	86.0207	707.52	85.6568	707.52	85.912	707.52	85.5372	707.52	85.8723	707.52	85.4913	707.52	85.912	707.52	85.5372	707.52	86.0207	707.52	85.6568	707.52	86.1712	707.52	85.8057	707.52	86.3315	707.52	85.9387	707.52	86.4724	707.52	86.0352	707.52	86.5685	707.52	86.109	707.52	86.598	707.52	86.1933	707.52	86.5512	707.52	86.3092	707.52	86.4422
732.422	86.1633	732.422	86.1428	732.422	86.2049	732.422	86.1411	732.422	86.2505	732.422	86.1415	732.422	86.2663	732.422	86.1172	732.422	86.218	732.422	86.0415	732.422	86.0936	732.422	85.907	732.422	85.9154	732.422	85.7412	732.422	85.7321	732.422	85.6016	732.422	85.597	732.422	85.5468	732.422	85.5476	732.422	85.6016	732.422	85.597	732.422	85.7412	732.422	85.7321	732.422	85.907	732.422	85.9154	732.422	86.0415	732.422	86.0936	732.422	86.1172	732.422	86.218	732.422	86.1415	732.422	86.2663	732.422	86.1411	732.422	86.2505	732.422	86.1428	732.422	86.2049	732.422	86.1633
757.324	85.8643	757.324	85.8658	757.324	85.9205	757.324	85.9217	757.324	85.9886	757.324	85.9876	757.324	85.9991	757.324	86.0065	757.324	85.9038	757.324	85.9421	757.324	85.705	757.324	85.8013	757.324	85.452	757.324	85.6312	757.324	85.2137	757.324	85.4955	757.324	85.0488	757.324	85.4441	757.324	84.9906	757.324	85.4955	757.324	85.0488	757.324	85.6312	757.324	85.2137	757.324	85.8013	757.324	85.452	757.324	85.9421	757.324	85.705	757.324	86.0065	757.324	85.9038	757.324	85.9876	757.324	85.9991	757.324	85.9217	757.324	85.9886	757.324	85.8658	757.324	85.9205	757.324	85.8643
785.156	86.175	785.156	86.1883	785.156	86.1669	785.156	86.1916	785.156	86.1292	785.156	86.1305	785.156	86.013	785.156	85.9606	785.156	85.8018	785.156	85.6887	785.156	85.5285	785.156	85.3767	785.156	85.2548	785.156	85.1068	785.156	85.0347	785.156	84.9353	785.156	84.8964	785.156	84.8782	785.156	84.8497	785.156	84.9353	785.156	84.8964	785.156	85.1068	785.156	85.0347	785.156	85.3767	785.156	85.2548	785.156	85.6887	785.156	85.5285	785.156	85.9606	785.156	85.8018	785.156	86.1305	785.156	86.013	785.156	86.1916	785.156	86.1292	785.156	86.1883	785.156	86.1669	785.156	86.175
811.523	85.3644	811.523	85.4775	811.523	85.3737	811.523	85.6862	811.523	85.4321	811.523	85.878	811.523	85.4478	811.523	85.9526	811.523	85.3876	811.523	85.8966	811.523	85.2819	811.523	85.7746	811.523	85.1782	811.523	85.664	811.523	85.1026	811.523	85.6014	811.523	85.0591	811.523	85.583	811.523	85.0449	811.523	85.6014	811.523	85.0591	811.523	85.664	811.523	85.1026	811.523	85.7746	811.523	85.1782	811.523	85.8966	811.523	85.2819	811.523	85.9526	811.523	85.3876	811.523	85.878	811.523	85.4478	811.523	85.6862	811.523	85.4321	811.523	85.4775	811.523	85.3737	811.523	85.3644
840.82	85.6864	840.82	85.6563	840.82	85.7102	840.82	85.6686	840.82	85.6634	840.82	85.7121	840.82	85.5259	840.82	85.7409	840.82	85.3419	840.82	85.7329	840.82	85.1824	840.82	85.7011	840.82	85.0837	840.82	85.6672	840.82	85.034	840.82	85.6439	840.82	85.0098	840.82	85.6357	840.82	85.0018	840.82	85.6439	840.82	85.0098	840.82	85.6672	840.82	85.034	840.82	85.7011	840.82	85.0837	840.82	85.7329	840.82	85.1824	840.82	85.7409	840.82	85.3419	840.82	85.7121	840.82	85.5259	840.82	85.6686	840.82	85.6634	840.82	85.6563	840.82	85.7102	840.82	85.6864
870.117	85.8367	870.117	85.7922	870.117	85.8054	870.117	85.6851	870.117	85.732	870.117	85.5627	870.117	85.6648	870.117	85.4668	870.117	85.6218	870.117	85.414	870.117	85.5733	870.117	85.3964	870.117	85.4781	870.117	85.391	870.117	85.3398	870.117	85.3834	870.117	85.2131	870.117	85.3787	870.117	85.1619	870.117	85.3834	870.117	85.2131	870.117	85.391	870.117	85.3398	870.117	85.3964	870.117	85.4781	870.117	85.414	870.117	85.5733	870.117	85.4668	870.117	85.6218	870.117	85.5627	870.117	85.6648	870.117	85.6851	870.117	85.732	870.117	85.7922	870.117	85.8054	870.117	85.8367
900.879	85.8988	900.879	85.8479	900.879	85.7617	900.879	85.6236	900.879	85.5248	900.879	85.3318	900.879	85.3083	900.879	85.086	900.879	85.1658	900.879	84.9178	900.879	85.0614	900.879	84.7766	900.879	84.9416	900.879	84.6185	900.879	84.8026	900.879	84.4717	900.879	84.6873	900.879	84.4098	900.879	84.6425	900.879	84.4717	900.879	84.6873	900.879	84.6185	900.879	84.8026	900.879	84.7766	900.879	84.9416	900.879	84.9178	900.879	85.0614	900.879	85.086	900.879	85.1658	900.879	85.3318	900.879	85.3083	900.879	85.6236	900.879	85.5248	900.879	85.8479	900.879	85.7617	900.879	85.8988
933.105	85.6729	933.105	85.6624	933.105	85.5178	933.105	85.4703	933.105	85.3296	933.105	85.2022	933.105	85.2177	933.105	84.9652	933.105	85.1587	933.105	84.7705	933.105	85.056	933.105	84.5691	933.105	84.8642	933.105	84.3495	933.105	84.6288	933.105	84.1678	933.105	84.4387	933.105	84.0969	933.105	84.3665	933.105	84.1678	933.105	84.4387	933.105	84.3495	933.105	84.6288	933.105	84.5691	933.105	84.8642	933.105	84.7705	933.105	85.056	933.105	84.9652	933.105	85.1587	933.105	85.2022	933.105	85.2177	933.105	85.4703	933.105	85.3296	933.105	85.6624	933.105	85.5178	933.105	85.6729
965.332	84.6938	965.332	84.6218	965.332	84.7338	965.332	84.5091	965.332	84.7806	965.332	84.401	965.332	84.8092	965.332	84.2983	965.332	84.7485	965.332	84.1331	965.332	84.5653	965.332	83.8595	965.332	84.3021	965.332	83.5222	965.332	84.0487	965.332	83.2394	965.332	83.8794	965.332	83.1293	965.332	83.8219	965.332	83.2394	965.332	83.8794	965.332	83.5222	965.332	84.0487	965.332	83.8595	965.332	84.3021	965.332	84.1331	965.332	84.5653	965.332	84.2983	965.332	84.7485	965.332	84.401	965.332	84.8092	965.332	84.5091	965.332	84.7806	965.332	84.6218	965.332	84.7338	965.332	84.6938
1,000.49	84.6737	1,000.49	84.6423	1,000.49	84.7653	1,000.49	84.6679	1,000.49	84.795	1,000.49	84.616	1,000.49	84.6418	1,000.49	84.3526	1,000.49	84.3101	1,000.49	83.8915	1,000.49	83.9324	1,000.49	83.4156	1,000.49	83.6515	1,000.49	83.1321	1,000.49	83.5082	1,000.49	83.0679	1,000.49	83.4563	1,000.49	83.0769	1,000.49	83.4448	1,000.49	83.0679	1,000.49	83.4563	1,000.49	83.1321	1,000.49	83.5082	1,000.49	83.4156	1,000.49	83.6515	1,000.49	83.8915	1,000.49	83.9324	1,000.49	84.3526	1,000.49	84.3101	1,000.49	84.616	1,000.49	84.6418	1,000.49	84.6679	1,000.49	84.795	1,000.49	84.6423	1,000.49	84.7653	1,000.49	84.6737
1,035.64	84.3603	1,035.64	84.3811	1,035.64	84.5025	1,035.64	84.5296	1,035.64	84.5572	1,035.64	84.5407	1,035.64	84.2949	1,035.64	84.2501	1,035.64	83.742	1,035.64	83.7654	1,035.64	83.136	1,035.64	83.3412	1,035.64	82.6958	1,035.64	83.1157	1,035.64	82.4589	1,035.64	83.0416	1,035.64	82.3535	1,035.64	83.0288	1,035.64	82.3233	1,035.64	83.0416	1,035.64	82.3535	1,035.64	83.1157	1,035.64	82.4589	1,035.64	83.3412	1,035.64	82.6958	1,035.64	83.7654	1,035.64	83.136	1,035.64	84.2501	1,035.64	83.742	1,035.64	84.5407	1,035.64	84.2949	1,035.64	84.5296	1,035.64	84.5572	1,035.64	84.3811	1,035.64	84.5025	1,035.64	84.3603
1,072.27	83.8902	1,072.27	83.8721	1,072.27	83.8708	1,072.27	83.8009	1,072.27	83.738	1,072.27	83.5769	1,072.27	83.4608	1,072.27	83.1862	1,072.27	83.1409	1,072.27	82.7966	1,072.27	82.8517	1,072.27	82.5486	1,072.27	82.5263	1,072.27	82.396	1,072.27	82.1307	1,072.27	82.2764	1,072.27	81.7783	1,072.27	82.2242	1,072.27	81.6355	1,072.27	82.2764	1,072.27	81.7783	1,072.27	82.396	1,072.27	82.1307	1,072.27	82.5486	1,072.27	82.5263	1,072.27	82.7966	1,072.27	82.8517	1,072.27	83.1862	1,072.27	83.1409	1,072.27	83.5769	1,072.27	83.4608	1,072.27	83.8009	1,072.27	83.738	1,072.27	83.8721	1,072.27	83.8708	1,072.27	83.8902
1,108.89	82.9066	1,108.89	82.698	1,108.89	82.9529	1,108.89	82.4234	1,108.89	82.8771	1,108.89	82.2024	1,108.89	82.7962	1,108.89	82.1283	1,108.89	82.7393	1,108.89	82.19	1,108.89	82.5986	1,108.89	82.1881	1,108.89	82.2882	1,108.89	81.9903	1,108.89	81.8815	1,108.89	81.7136	1,108.89	81.5493	1,108.89	81.5852	1,108.89	81.4245	1,108.89	81.7136	1,108.89	81.5493	1,108.89	81.9903	1,108.89	81.8815	1,108.89	82.1881	1,108.89	82.2882	1,108.89	82.19	1,108.89	82.5986	1,108.89	82.1283	1,108.89	82.7393	1,108.89	82.2024	1,108.89	82.7962	1,108.89	82.4234	1,108.89	82.8771	1,108.89	82.698	1,108.89	82.9529	1,108.89	82.9066
1,148.44	82.9359	1,148.44	82.6089	1,148.44	82.9802	1,148.44	82.1296	1,148.44	82.8981	1,148.44	81.8441	1,148.44	82.8689	1,148.44	81.9156	1,148.44	82.8548	1,148.44	82.1208	1,148.44	82.7212	1,148.44	82.1872	1,148.44	82.4779	1,148.44	82.1041	1,148.44	82.2611	1,148.44	82.0131	1,148.44	82.1521	1,148.44	81.9832	1,148.44	82.1257	1,148.44	82.0131	1,148.44	82.1521	1,148.44	82.1041	1,148.44	82.2611	1,148.44	82.1872	1,148.44	82.4779	1,148.44	82.1208	1,148.44	82.7212	1,148.44	81.9156	1,148.44	82.8548	1,148.44	81.8441	1,148.44	82.8689	1,148.44	82.1296	1,148.44	82.8981	1,148.44	82.6089	1,148.44	82.9802	1,148.44	82.9359
1,189.45	83.1664	1,189.45	82.6789	1,189.45	83.2536	1,189.45	81.9907	1,189.45	83.0704	1,189.45	81.5282	1,189.45	82.8275	1,189.45	81.4878	1,189.45	82.6006	1,189.45	81.6984	1,189.45	82.4005	1,189.45	81.9977	1,189.45	82.2886	1,189.45	82.3559	1,189.45	82.3013	1,189.45	82.6787	1,189.45	82.3766	1,189.45	82.8102	1,189.45	82.4166	1,189.45	82.6787	1,189.45	82.3766	1,189.45	82.3559	1,189.45	82.3013	1,189.45	81.9977	1,189.45	82.2886	1,189.45	81.6984	1,189.45	82.4005	1,189.45	81.4878	1,189.45	82.6006	1,189.45	81.5282	1,189.45	82.8275	1,189.45	81.9907	1,189.45	83.0704	1,189.45	82.6789	1,189.45	83.2536	1,189.45	83.1664
1,230.47	84.1238	1,230.47	83.8542	1,230.47	84.0272	1,230.47	83.3059	1,230.47	83.6969	1,230.47	82.7293	1,230.47	83.3147	1,230.47	82.3413	1,230.47	83.0082	1,230.47	82.2457	1,230.47	82.8589	1,230.47	82.3983	1,230.47	82.8492	1,230.47	82.628	1,230.47	82.8624	1,230.47	82.7891	1,230.47	82.8349	1,230.47	82.842	1,230.47	82.8121	1,230.47	82.7891	1,230.47	82.8349	1,230.47	82.628	1,230.47	82.8624	1,230.47	82.3983	1,230.47	82.8492	1,230.47	82.2457	1,230.47	82.8589	1,230.47	82.3413	1,230.47	83.0082	1,230.47	82.7293	1,230.47	83.3147	1,230.47	83.3059	1,230.47	83.6969	1,230.47	83.8542	1,230.47	84.0272	1,230.47	84.1238
1,274.41	83.2109	1,274.41	83.1971	1,274.41	83.1572	1,274.41	83.0729	1,274.41	83.062	1,274.41	82.821	1,274.41	82.9825	1,274.41	82.5997	1,274.41	83.0065	1,274.41	82.5916	1,274.41	83.1483	1,274.41	82.7009	1,274.41	83.2922	1,274.41	82.6992	1,274.41	83.3327	1,274.41	82.563	1,274.41	83.2903	1,274.41	82.478	1,274.41	83.2593	1,274.41	82.563	1,274.41	83.2903	1,274.41	82.6992	1,274.41	83.3327	1,274.41	82.7009	1,274.41	83.2922	1,274.41	82.5916	1,274.41	83.1483	1,274.41	82.5997	1,274.41	83.0065	1,274.41	82.821	1,274.41	82.9825	1,274.41	83.0729	1,274.41	83.062	1,274.41	83.1971	1,274.41	83.1572	1,274.41	83.2109
1,319.82	84.1731	1,319.82	84.3898	1,319.82	83.9204	1,319.82	84.4395	1,319.82	83.6544	1,319.82	84.2506	1,319.82	83.4012	1,319.82	83.9347	1,319.82	83.293	1,319.82	83.642	1,319.82	83.3604	1,319.82	83.4076	1,319.82	83.4672	1,319.82	83.2038	1,319.82	83.5351	1,319.82	83.0455	1,319.82	83.5837	1,319.82	82.9844	1,319.82	83.607	1,319.82	83.0455	1,319.82	83.5837	1,319.82	83.2038	1,319.82	83.5351	1,319.82	83.4076	1,319.82	83.4672	1,319.82	83.642	1,319.82	83.3604	1,319.82	83.9347	1,319.82	83.293	1,319.82	84.2506	1,319.82	83.4012	1,319.82	84.4395	1,319.82	83.6544	1,319.82	84.3898	1,319.82	83.9204	1,319.82	84.1731
1,366.7	84.4624	1,366.7	84.6454	1,366.7	84.2535	1,366.7	84.7973	1,366.7	83.9853	1,366.7	84.8372	1,366.7	83.7962	1,366.7	84.7514	1,366.7	83.8002	1,366.7	84.5248	1,366.7	83.8596	1,366.7	84.18	1,366.7	83.8405	1,366.7	83.8622	1,366.7	83.7806	1,366.7	83.6954	1,366.7	83.7457	1,366.7	83.6559	1,366.7	83.7382	1,366.7	83.6954	1,366.7	83.7457	1,366.7	83.8622	1,366.7	83.7806	1,366.7	84.18	1,366.7	83.8405	1,366.7	84.5248	1,366.7	83.8596	1,366.7	84.7514	1,366.7	83.8002	1,366.7	84.8372	1,366.7	83.7962	1,366.7	84.7973	1,366.7	83.9853	1,366.7	84.6454	1,366.7	84.2535	1,366.7	84.4624
1,413.57	84.6128	1,413.57	84.5854	1,413.57	84.4324	1,413.57	84.4741	1,413.57	84.178	1,413.57	84.4618	1,413.57	84.0374	1,413.57	84.5095	1,413.57	83.9475	1,413.57	84.4276	1,413.57	83.766	1,413.57	84.1909	1,413.57	83.5137	1,413.57	83.9531	1,413.57	83.2306	1,413.57	83.8194	1,413.57	82.943	1,413.57	83.7823	1,413.57	82.8065	1,413.57	83.8194	1,413.57	82.943	1,413.57	83.9531	1,413.57	83.2306	1,413.57	84.1909	1,413.57	83.5137	1,413.57	84.4276	1,413.57	83.766	1,413.57	84.5095	1,413.57	83.9475	1,413.57	84.4618	1,413.57	84.0374	1,413.57	84.4741	1,413.57	84.178	1,413.57	84.5854	1,413.57	84.4324	1,413.57	84.6128
1,463.38	85.0671	1,463.38	85.0251	1,463.38	84.7154	1,463.38	84.7776	1,463.38	84.292	1,463.38	84.73	1,463.38	84.0722	1,463.38	84.815	1,463.38	83.9607	1,463.38	84.7257	1,463.38	83.8241	1,463.38	84.451	1,463.38	83.6025	1,463.38	84.1405	1,463.38	83.2621	1,463.38	83.8861	1,463.38	82.9029	1,463.38	83.7808	1,463.38	82.7449	1,463.38	83.8861	1,463.38	82.9029	1,463.38	84.1405	1,463.38	83.2621	1,463.38	84.451	1,463.38	83.6025	1,463.38	84.7257	1,463.38	83.8241	1,463.38	84.815	1,463.38	83.9607	1,463.38	84.73	1,463.38	84.0722	1,463.38	84.7776	1,463.38	84.292	1,463.38	85.0251	1,463.38	84.7154	1,463.38	85.0671
1,516.11	84.266	1,516.11	84.1727	1,516.11	84.1354	1,516.11	83.951	1,516.11	83.9434	1,516.11	83.8426	1,516.11	83.7545	1,516.11	83.8542	1,516.11	83.5745	1,516.11	83.8946	1,516.11	83.3872	1,516.11	83.8892	1,516.11	83.0346	1,516.11	83.7498	1,516.11	82.5097	1,516.11	83.5392	1,516.11	82.0612	1,516.11	83.44	1,516.11	81.8954	1,516.11	83.5392	1,516.11	82.0612	1,516.11	83.7498	1,516.11	82.5097	1,516.11	83.8892	1,516.11	83.0346	1,516.11	83.8946	1,516.11	83.3872	1,516.11	83.8542	1,516.11	83.5745	1,516.11	83.8426	1,516.11	83.7545	1,516.11	83.951	1,516.11	83.9434	1,516.11	84.1727	1,516.11	84.1354	1,516.11	84.266
1,568.85	84.1995	1,568.85	84.1242	1,568.85	83.8416	1,568.85	83.6821	1,568.85	83.2178	1,568.85	83.1312	1,568.85	82.7801	1,568.85	82.878	1,568.85	82.7441	1,568.85	82.9043	1,568.85	82.6818	1,568.85	82.7527	1,568.85	82.3011	1,568.85	82.4062	1,568.85	81.8756	1,568.85	82.2458	1,568.85	81.6822	1,568.85	82.2534	1,568.85	81.6491	1,568.85	82.2458	1,568.85	81.6822	1,568.85	82.4062	1,568.85	81.8756	1,568.85	82.7527	1,568.85	82.3011	1,568.85	82.9043	1,568.85	82.6818	1,568.85	82.878	1,568.85	82.7441	1,568.85	83.1312	1,568.85	82.7801	1,568.85	83.6821	1,568.85	83.2178	1,568.85	84.1242	1,568.85	83.8416	1,568.85	84.1995
1,624.51	85.0239	1,624.51	84.7705	1,624.51	85.1092	1,624.51	84.5644	1,624.51	84.9023	1,624.51	84.2079	1,624.51	84.6256	1,624.51	83.5667	1,624.51	84.2511	1,624.51	82.9008	1,624.51	83.6281	1,624.51	82.4601	1,624.51	82.9139	1,624.51	82.16	1,624.51	82.3233	1,624.51	81.926	1,624.51	81.8557	1,624.51	81.8349	1,624.51	81.6459	1,624.51	81.926	1,624.51	81.8557	1,624.51	82.16	1,624.51	82.3233	1,624.51	82.4601	1,624.51	82.9139	1,624.51	82.9008	1,624.51	83.6281	1,624.51	83.5667	1,624.51	84.2511	1,624.51	84.2079	1,624.51	84.6256	1,624.51	84.5644	1,624.51	84.9023	1,624.51	84.7705	1,624.51	85.1092	1,624.51	85.0239
1,681.64	84.9511	1,681.64	84.8143	1,681.64	85.0247	1,681.64	84.6471	1,681.64	85.0722	1,681.64	84.2736	1,681.64	84.9756	1,681.64	83.7739	1,681.64	84.3701	1,681.64	83.4157	1,681.64	83.5089	1,681.64	83.124	1,681.64	83.0096	1,681.64	82.6326	1,681.64	82.8853	1,681.64	82.0608	1,681.64	82.7834	1,681.64	81.806	1,681.64	82.7146	1,681.64	82.0608	1,681.64	82.7834	1,681.64	82.6326	1,681.64	82.8853	1,681.64	83.124	1,681.64	83.0096	1,681.64	83.4157	1,681.64	83.5089	1,681.64	83.7739	1,681.64	84.3701	1,681.64	84.2736	1,681.64	84.9756	1,681.64	84.6471	1,681.64	85.0722	1,681.64	84.8143	1,681.64	85.0247	1,681.64	84.9511
1,741.7	85.9362	1,741.7	86.0133	1,741.7	86.0106	1,741.7	85.9232	1,741.7	86.2032	1,741.7	85.4418	1,741.7	85.9821	1,741.7	84.7517	1,741.7	85.1608	1,741.7	84.1897	1,741.7	84.2424	1,741.7	83.6165	1,741.7	83.7179	1,741.7	82.8342	1,741.7	83.4234	1,741.7	82.1839	1,741.7	83.0894	1,741.7	81.9704	1,741.7	82.9047	1,741.7	82.1839	1,741.7	83.0894	1,741.7	82.8342	1,741.7	83.4234	1,741.7	83.6165	1,741.7	83.7179	1,741.7	84.1897	1,741.7	84.2424	1,741.7	84.7517	1,741.7	85.1608	1,741.7	85.4418	1,741.7	85.9821	1,741.7	85.9232	1,741.7	86.2032	1,741.7	86.0133	1,741.7	86.0106	1,741.7	85.9362
1,803.22	86.5583	1,803.22	86.7945	1,803.22	86.3387	1,803.22	86.6889	1,803.22	86.1416	1,803.22	86.0865	1,803.22	85.5792	1,803.22	85.355	1,803.22	84.6205	1,803.22	84.7038	1,803.22	83.684	1,803.22	83.7806	1,803.22	82.898	1,803.22	82.5959	1,803.22	82.1348	1,803.22	81.6796	1,803.22	81.6186	1,803.22	81.3536	1,803.22	81.4845	1,803.22	81.6796	1,803.22	81.6186	1,803.22	82.5959	1,803.22	82.1348	1,803.22	83.7806	1,803.22	82.898	1,803.22	84.7038	1,803.22	83.684	1,803.22	85.355	1,803.22	84.6205	1,803.22	86.0865	1,803.22	85.5792	1,803.22	86.6889	1,803.22	86.1416	1,803.22	86.7945	1,803.22	86.3387	1,803.22	86.5583
1,866.21	85.7542	1,866.21	86.1098	1,866.21	85.663	1,866.21	86.0941	1,866.21	85.6117	1,866.21	85.4886	1,866.21	84.8926	1,866.21	84.8431	1,866.21	83.7008	1,866.21	84.206	1,866.21	82.7992	1,866.21	83.1221	1,866.21	82.0423	1,866.21	81.8824	1,866.21	80.9239	1,866.21	81.1502	1,866.21	79.7722	1,866.21	80.9372	1,866.21	79.2901	1,866.21	81.1502	1,866.21	79.7722	1,866.21	81.8824	1,866.21	80.9239	1,866.21	83.1221	1,866.21	82.0423	1,866.21	84.206	1,866.21	82.7992	1,866.21	84.8431	1,866.21	83.7008	1,866.21	85.4886	1,866.21	84.8926	1,866.21	86.0941	1,866.21	85.6117	1,866.21	86.1098	1,866.21	85.663	1,866.21	85.7542
1,932.13	85.5937	1,932.13	85.9068	1,932.13	85.5849	1,932.13	85.7877	1,932.13	85.5782	1,932.13	85.1928	1,932.13	84.7423	1,932.13	84.325	1,932.13	83.514	1,932.13	83.107	1,932.13	82.5393	1,932.13	82.0592	1,932.13	81.405	1,932.13	81.5708	1,932.13	80.166	1,932.13	81.1516	1,932.13	79.5368	1,932.13	80.8722	1,932.13	79.4274	1,932.13	81.1516	1,932.13	79.5368	1,932.13	81.5708	1,932.13	80.166	1,932.13	82.0592	1,932.13	81.405	1,932.13	83.107	1,932.13	82.5393	1,932.13	84.325	1,932.13	83.514	1,932.13	85.1928	1,932.13	84.7423	1,932.13	85.7877	1,932.13	85.5782	1,932.13	85.9068	1,932.13	85.5849	1,932.13	85.5937
1,999.51	85.8727	1,999.51	85.9576	1,999.51	85.9994	1,999.51	85.8847	1,999.51	86.0309	1,999.51	85.46	1,999.51	85.3608	1,999.51	84.2634	1,999.51	84.3334	1,999.51	82.5239	1,999.51	83.1515	1,999.51	81.3411	1,999.51	81.7709	1,999.51	80.9806	1,999.51	80.6619	1,999.51	80.8737	1,999.51	80.2247	1,999.51	80.8213	1,999.51	80.1794	1,999.51	80.8737	1,999.51	80.2247	1,999.51	80.9806	1,999.51	80.6619	1,999.51	81.3411	1,999.51	81.7709	1,999.51	82.5239	1,999.51	83.1515	1,999.51	84.2634	1,999.51	84.3334	1,999.51	85.46	1,999.51	85.3608	1,999.51	85.8847	1,999.51	86.0309	1,999.51	85.9576	1,999.51	85.9994	1,999.51	85.8727
2,069.82	86.1353	2,069.82	86.1785	2,069.82	86.4576	2,069.82	86.1677	2,069.82	86.4528	2,069.82	85.4439	2,069.82	85.8548	2,069.82	84.0122	2,069.82	84.8282	2,069.82	82.4598	2,069.82	83.2048	2,069.82	81.397	2,069.82	81.6433	2,069.82	80.893	2,069.82	81.0057	2,069.82	80.4952	2,069.82	80.7834	2,069.82	80.2452	2,069.82	80.6539	2,069.82	80.4952	2,069.82	80.7834	2,069.82	80.893	2,069.82	81.0057	2,069.82	81.397	2,069.82	81.6433	2,069.82	82.4598	2,069.82	83.2048	2,069.82	84.0122	2,069.82	84.8282	2,069.82	85.4439	2,069.82	85.8548	2,069.82	86.1677	2,069.82	86.4528	2,069.82	86.1785	2,069.82	86.4576	2,069.82	86.1353
2,143.07	86.0031	2,143.07	86.1183	2,143.07	86.1146	2,143.07	86.1447	2,143.07	86.099	2,143.07	85.5454	2,143.07	85.4965	2,143.07	84.3286	2,143.07	84.1789	2,143.07	83.0956	2,143.07	82.4636	2,143.07	82.1909	2,143.07	81.3524	2,143.07	81.4627	2,143.07	81.1947	2,143.07	80.8104	2,143.07	81.1978	2,143.07	80.5002	2,143.07	81.1805	2,143.07	80.8104	2,143.07	81.1978	2,143.07	81.4627	2,143.07	81.1947	2,143.07	82.1909	2,143.07	81.3524	2,143.07	83.0956	2,143.07	82.4636	2,143.07	84.3286	2,143.07	84.1789	2,143.07	85.5454	2,143.07	85.4965	2,143.07	86.1447	2,143.07	86.099	2,143.07	86.1183	2,143.07	86.1146	2,143.07	86.0031
2,219.24	85.3801	2,219.24	85.3819	2,219.24	85.512	2,219.24	85.7157	2,219.24	85.086	2,219.24	85.1661	2,219.24	84.2382	2,219.24	83.7671	2,219.24	82.6413	2,219.24	82.8354	2,219.24	80.7523	2,219.24	82.1311	2,219.24	80.2482	2,219.24	81.2924	2,219.24	80.0578	2,219.24	80.8895	2,219.24	79.5138	2,219.24	80.8538	2,219.24	79.2681	2,219.24	80.8895	2,219.24	79.5138	2,219.24	81.2924	2,219.24	80.0578	2,219.24	82.1311	2,219.24	80.2482	2,219.24	82.8354	2,219.24	80.7523	2,219.24	83.7671	2,219.24	82.6413	2,219.24	85.1661	2,219.24	84.2382	2,219.24	85.7157	2,219.24	85.086	2,219.24	85.3819	2,219.24	85.512	2,219.24	85.3801
2,296.88	84.2523	2,296.88	84.4887	2,296.88	84.17	2,296.88	84.7769	2,296.88	83.9171	2,296.88	84.0254	2,296.88	83.2869	2,296.88	82.9799	2,296.88	81.4489	2,296.88	82.1564	2,296.88	80.1225	2,296.88	81.1901	2,296.88	79.7111	2,296.88	80.9828	2,296.88	79.1481	2,296.88	81.1518	2,296.88	78.7401	2,296.88	81.176	2,296.88	78.5543	2,296.88	81.1518	2,296.88	78.7401	2,296.88	80.9828	2,296.88	79.1481	2,296.88	81.1901	2,296.88	79.7111	2,296.88	82.1564	2,296.88	80.1225	2,296.88	82.9799	2,296.88	81.4489	2,296.88	84.0254	2,296.88	83.2869	2,296.88	84.7769	2,296.88	83.9171	2,296.88	84.4887	2,296.88	84.17	2,296.88	84.2523
2,378.91	83.6686	2,378.91	83.7451	2,378.91	83.7394	2,378.91	83.5068	2,378.91	83.9587	2,378.91	82.6569	2,378.91	83.1193	2,378.91	81.8149	2,378.91	81.842	2,378.91	80.717	2,378.91	81.308	2,378.91	79.8668	2,378.91	80.3038	2,378.91	80.1589	2,378.91	79.5485	2,378.91	80.478	2,378.91	79.2514	2,378.91	80.4751	2,378.91	79.1657	2,378.91	80.478	2,378.91	79.2514	2,378.91	80.1589	2,378.91	79.5485	2,378.91	79.8668	2,378.91	80.3038	2,378.91	80.717	2,378.91	81.308	2,378.91	81.8149	2,378.91	81.842	2,378.91	82.6569	2,378.91	83.1193	2,378.91	83.5068	2,378.91	83.9587	2,378.91	83.7451	2,378.91	83.7394	2,378.91	83.6686
2,462.4	84.9518	2,462.4	84.9215	2,462.4	85.1492	2,462.4	84.3071	2,462.4	84.8783	2,462.4	83.394	2,462.4	83.8621	2,462.4	82.5894	2,462.4	83.4749	2,462.4	81.6908	2,462.4	82.9474	2,462.4	81.1816	2,462.4	81.8788	2,462.4	80.5119	2,462.4	81.2222	2,462.4	80.0796	2,462.4	81.0115	2,462.4	80.0922	2,462.4	80.8102	2,462.4	80.0796	2,462.4	81.0115	2,462.4	80.5119	2,462.4	81.2222	2,462.4	81.1816	2,462.4	81.8788	2,462.4	81.6908	2,462.4	82.9474	2,462.4	82.5894	2,462.4	83.4749	2,462.4	83.394	2,462.4	83.8621	2,462.4	84.3071	2,462.4	84.8783	2,462.4	84.9215	2,462.4	85.1492	2,462.4	84.9518
2,548.83	85.6391	2,548.83	85.5454	2,548.83	85.4196	2,548.83	84.856	2,548.83	84.8219	2,548.83	84.4101	2,548.83	83.9367	2,548.83	83.7479	2,548.83	83.4734	2,548.83	83.1221	2,548.83	82.8578	2,548.83	82.7373	2,548.83	82.0161	2,548.83	81.7858	2,548.83	81.57	2,548.83	80.9613	2,548.83	81.1109	2,548.83	80.7979	2,548.83	80.8421	2,548.83	80.9613	2,548.83	81.1109	2,548.83	81.7858	2,548.83	81.57	2,548.83	82.7373	2,548.83	82.0161	2,548.83	83.1221	2,548.83	82.8578	2,548.83	83.7479	2,548.83	83.4734	2,548.83	84.4101	2,548.83	83.9367	2,548.83	84.856	2,548.83	84.8219	2,548.83	85.5454	2,548.83	85.4196	2,548.83	85.6391
2,639.65	85.3869	2,639.65	85.2951	2,639.65	84.9649	2,639.65	84.8386	2,639.65	84.2547	2,639.65	84.3351	2,639.65	83.2891	2,639.65	83.7718	2,639.65	82.708	2,639.65	83.6184	2,639.65	81.7146	2,639.65	82.8642	2,639.65	81.1072	2,639.65	81.9708	2,639.65	80.4864	2,639.65	81.2698	2,639.65	79.8533	2,639.65	80.991	2,639.65	79.5006	2,639.65	81.2698	2,639.65	79.8533	2,639.65	81.9708	2,639.65	80.4864	2,639.65	82.8642	2,639.65	81.1072	2,639.65	83.6184	2,639.65	81.7146	2,639.65	83.7718	2,639.65	82.708	2,639.65	84.3351	2,639.65	83.2891	2,639.65	84.8386	2,639.65	84.2547	2,639.65	85.2951	2,639.65	84.9649	2,639.65	85.3869
2,731.93	84.9067	2,731.93	84.5575	2,731.93	84.4804	2,731.93	83.9803	2,731.93	83.4493	2,731.93	83.3853	2,731.93	83.1454	2,731.93	83.3642	2,731.93	82.5573	2,731.93	82.8407	2,731.93	81.9087	2,731.93	81.6764	2,731.93	80.9221	2,731.93	80.7714	2,731.93	79.527	2,731.93	80.4637	2,731.93	78.7286	2,731.93	80.442	2,731.93	78.506	2,731.93	80.4637	2,731.93	78.7286	2,731.93	80.7714	2,731.93	79.527	2,731.93	81.6764	2,731.93	80.9221	2,731.93	82.8407	2,731.93	81.9087	2,731.93	83.3642	2,731.93	82.5573	2,731.93	83.3853	2,731.93	83.1454	2,731.93	83.9803	2,731.93	83.4493	2,731.93	84.5575	2,731.93	84.4804	2,731.93	84.9067
2,828.61	85.6856	2,828.61	84.9559	2,828.61	85.1554	2,828.61	84.3447	2,828.61	84.5102	2,828.61	84.1711	2,828.61	84.4851	2,828.61	84.0329	2,828.61	84.0314	2,828.61	82.9615	2,828.61	83.5463	2,828.61	81.6709	2,828.61	82.0628	2,828.61	80.7156	2,828.61	80.2091	2,828.61	79.849	2,828.61	79.3615	2,828.61	79.7201	2,828.61	79.1003	2,828.61	79.849	2,828.61	79.3615	2,828.61	80.7156	2,828.61	80.2091	2,828.61	81.6709	2,828.61	82.0628	2,828.61	82.9615	2,828.61	83.5463	2,828.61	84.0329	2,828.61	84.0314	2,828.61	84.1711	2,828.61	84.4851	2,828.61	84.3447	2,828.61	84.5102	2,828.61	84.9559	2,828.61	85.1554	2,828.61	85.6856
2,928.22	87.327	2,928.22	86.8418	2,928.22	86.8568	2,928.22	86.3108	2,928.22	86.4175	2,928.22	86.3042	2,928.22	86.4457	2,928.22	85.9333	2,928.22	86.0584	2,928.22	84.4974	2,928.22	85.0877	2,928.22	83.1282	2,928.22	83.0763	2,928.22	81.6791	2,928.22	81.223	2,928.22	80.5057	2,928.22	80.3284	2,928.22	79.9559	2,928.22	80.0743	2,928.22	80.5057	2,928.22	80.3284	2,928.22	81.6791	2,928.22	81.223	2,928.22	83.1282	2,928.22	83.0763	2,928.22	84.4974	2,928.22	85.0877	2,928.22	85.9333	2,928.22	86.0584	2,928.22	86.3042	2,928.22	86.4457	2,928.22	86.3108	2,928.22	86.4175	2,928.22	86.8418	2,928.22	86.8568	2,928.22	87.327
3,030.76	88.412	3,030.76	88.0175	3,030.76	87.9029	3,030.76	87.6461	3,030.76	87.6068	3,030.76	88.1305	3,030.76	87.9003	3,030.76	87.4296	3,030.76	87.5153	3,030.76	85.9847	3,030.76	86.0094	3,030.76	84.15	3,030.76	83.9716	3,030.76	82.443	3,030.76	82.2251	3,030.76	81.6137	3,030.76	81.0074	3,030.76	81.4632	3,030.76	80.6645	3,030.76	81.6137	3,030.76	81.0074	3,030.76	82.443	3,030.76	82.2251	3,030.76	84.15	3,030.76	83.9716	3,030.76	85.9847	3,030.76	86.0094	3,030.76	87.4296	3,030.76	87.5153	3,030.76	88.1305	3,030.76	87.9003	3,030.76	87.6461	3,030.76	87.6068	3,030.76	88.0175	3,030.76	87.9029	3,030.76	88.412
3,137.7	88.6533	3,137.7	88.3063	3,137.7	88.1907	3,137.7	88.3307	3,137.7	88.1082	3,137.7	89.0459	3,137.7	88.6108	3,137.7	88.4931	3,137.7	88.1072	3,137.7	87.12	3,137.7	86.2833	3,137.7	85.0347	3,137.7	84.5162	3,137.7	83.1975	3,137.7	82.4325	3,137.7	82.4392	3,137.7	80.8945	3,137.7	82.3488	3,137.7	80.4648	3,137.7	82.4392	3,137.7	80.8945	3,137.7	83.1975	3,137.7	82.4325	3,137.7	85.0347	3,137.7	84.5162	3,137.7	87.12	3,137.7	86.2833	3,137.7	88.4931	3,137.7	88.1072	3,137.7	89.0459	3,137.7	88.6108	3,137.7	88.3307	3,137.7	88.1082	3,137.7	88.3063	3,137.7	88.1907	3,137.7	88.6533
3,249.02	88.6202	3,249.02	88.0896	3,249.02	88.05	3,249.02	88.0131	3,249.02	88.0505	3,249.02	88.9319	3,249.02	89.0662	3,249.02	88.4506	3,249.02	88.0836	3,249.02	86.3309	3,249.02	86.3647	3,249.02	84.2831	3,249.02	84.5957	3,249.02	83.0183	3,249.02	82.4257	3,249.02	82.3356	3,249.02	81.3151	3,249.02	82.1536	3,249.02	81.1993	3,249.02	82.3356	3,249.02	81.3151	3,249.02	83.0183	3,249.02	82.4257	3,249.02	84.2831	3,249.02	84.5957	3,249.02	86.3309	3,249.02	86.3647	3,249.02	88.4506	3,249.02	88.0836	3,249.02	88.9319	3,249.02	89.0662	3,249.02	88.0131	3,249.02	88.0505	3,249.02	88.0896	3,249.02	88.05	3,249.02	88.6202
3,363.28	88.5041	3,363.28	88.0592	3,363.28	88.2006	3,363.28	88.0551	3,363.28	88.3526	3,363.28	88.4305	3,363.28	89.2692	3,363.28	87.4923	3,363.28	87.8776	3,363.28	84.9773	3,363.28	86.1918	3,363.28	83.773	3,363.28	84.3155	3,363.28	82.6003	3,363.28	83.0946	3,363.28	82.4261	3,363.28	82.3256	3,363.28	83.2237	3,363.28	82.1835	3,363.28	82.4261	3,363.28	82.3256	3,363.28	82.6003	3,363.28	83.0946	3,363.28	83.773	3,363.28	84.3155	3,363.28	84.9773	3,363.28	86.1918	3,363.28	87.4923	3,363.28	87.8776	3,363.28	88.4305	3,363.28	89.2692	3,363.28	88.0551	3,363.28	88.3526	3,363.28	88.0592	3,363.28	88.2006	3,363.28	88.5041
3,481.93	87.9881	3,481.93	88.1667	3,481.93	87.923	3,481.93	88.5089	3,481.93	87.9826	3,481.93	88.2724	3,481.93	88.0666	3,481.93	86.7855	3,481.93	86.8078	3,481.93	86.0275	3,481.93	85.2867	3,481.93	85.4157	3,481.93	84.7766	3,481.93	83.4842	3,481.93	83.438	3,481.93	82.9789	3,481.93	81.9292	3,481.93	83.3379	3,481.93	81.9416	3,481.93	82.9789	3,481.93	81.9292	3,481.93	83.4842	3,481.93	83.438	3,481.93	85.4157	3,481.93	84.7766	3,481.93	86.0275	3,481.93	85.2867	3,481.93	86.7855	3,481.93	86.8078	3,481.93	88.2724	3,481.93	88.0666	3,481.93	88.5089	3,481.93	87.9826	3,481.93	88.1667	3,481.93	87.923	3,481.93	87.9881
3,604.98	87.0621	3,604.98	87.8291	3,604.98	87.6538	3,604.98	88.0921	3,604.98	88.0779	3,604.98	87.324	3,604.98	87.3182	3,604.98	86.1798	3,604.98	86.4376	3,604.98	86.6016	3,604.98	86.1354	3,604.98	86.1379	3,604.98	86.3404	3,604.98	84.311	3,604.98	84.2702	3,604.98	82.6058	3,604.98	81.6092	3,604.98	82.6291	3,604.98	81.5308	3,604.98	82.6058	3,604.98	81.6092	3,604.98	84.311	3,604.98	84.2702	3,604.98	86.1379	3,604.98	86.3404	3,604.98	86.6016	3,604.98	86.1354	3,604.98	86.1798	3,604.98	86.4376	3,604.98	87.324	3,604.98	87.3182	3,604.98	88.0921	3,604.98	88.0779	3,604.98	87.8291	3,604.98	87.6538	3,604.98	87.0621
3,732.42	87.3477	3,732.42	88.415	3,732.42	88.4966	3,732.42	88.3759	3,732.42	88.6233	3,732.42	86.1327	3,732.42	87.2415	3,732.42	86.146	3,732.42	87.3016	3,732.42	87.0837	3,732.42	88.0325	3,732.42	86.5032	3,732.42	87.2872	3,732.42	83.0063	3,732.42	84.1896	3,732.42	80.102	3,732.42	81.6425	3,732.42	80.2877	3,732.42	82.0092	3,732.42	80.102	3,732.42	81.6425	3,732.42	83.0063	3,732.42	84.1896	3,732.42	86.5032	3,732.42	87.2872	3,732.42	87.0837	3,732.42	88.0325	3,732.42	86.146	3,732.42	87.3016	3,732.42	86.1327	3,732.42	87.2415	3,732.42	88.3759	3,732.42	88.6233	3,732.42	88.415	3,732.42	88.4966	3,732.42	87.3477
3,864.26	87.5294	3,864.26	88.7037	3,864.26	88.3301	3,864.26	88.4242	3,864.26	87.9511	3,864.26	86.9222	3,864.26	86.2031	3,864.26	87.597	3,864.26	86.972	3,864.26	88.1567	3,864.26	87.4404	3,864.26	86.3931	3,864.26	85.8475	3,864.26	81.8461	3,864.26	81.236	3,864.26	78.7171	3,864.26	77.9693	3,864.26	78.8402	3,864.26	78.7303	3,864.26	78.7171	3,864.26	77.9693	3,864.26	81.8461	3,864.26	81.236	3,864.26	86.3931	3,864.26	85.8475	3,864.26	88.1567	3,864.26	87.4404	3,864.26	87.597	3,864.26	86.972	3,864.26	86.9222	3,864.26	86.2031	3,864.26	88.4242	3,864.26	87.9511	3,864.26	88.7037	3,864.26	88.3301	3,864.26	87.5294
4,000.49	87.0074	4,000.49	87.6871	4,000.49	87.5248	4,000.49	86.7582	4,000.49	86.745	4,000.49	85.8619	4,000.49	85.2147	4,000.49	87.2061	4,000.49	86.9093	4,000.49	87.0185	4,000.49	86.5849	4,000.49	84.4718	4,000.49	84.5331	4,000.49	79.2688	4,000.49	78.6093	4,000.49	74.7548	4,000.49	71.854	4,000.49	75.8107	4,000.49	75.1389	4,000.49	74.7548	4,000.49	71.854	4,000.49	79.2688	4,000.49	78.6093	4,000.49	84.4718	4,000.49	84.5331	4,000.49	87.0185	4,000.49	86.5849	4,000.49	87.2061	4,000.49	86.9093	4,000.49	85.8619	4,000.49	85.2147	4,000.49	86.7582	4,000.49	86.745	4,000.49	87.6871	4,000.49	87.5248	4,000.49	87.0074
4,141.11	88.6791	4,141.11	88.4134	4,141.11	88.4523	4,141.11	86.6253	4,141.11	87.1203	4,141.11	86.2464	4,141.11	86.3186	4,141.11	87.3735	4,141.11	87.9814	4,141.11	85.9356	4,141.11	86.7326	4,141.11	82.7076	4,141.11	83.84	4,141.11	76.393	4,141.11	77.2278	4,141.11	70.6551	4,141.11	69.706	4,141.11	73.2649	4,141.11	73.4406	4,141.11	70.6551	4,141.11	69.706	4,141.11	76.393	4,141.11	77.2278	4,141.11	82.7076	4,141.11	83.84	4,141.11	85.9356	4,141.11	86.7326	4,141.11	87.3735	4,141.11	87.9814	4,141.11	86.2464	4,141.11	86.3186	4,141.11	86.6253	4,141.11	87.1203	4,141.11	88.4134	4,141.11	88.4523	4,141.11	88.6791
4,287.6	89.3862	4,287.6	89.0283	4,287.6	88.9795	4,287.6	87.4485	4,287.6	87.1578	4,287.6	87.19	4,287.6	86.5452	4,287.6	87.9191	4,287.6	87.7082	4,287.6	85.2038	4,287.6	85.4369	4,287.6	82.2886	4,287.6	82.0416	4,287.6	78.6015	4,287.6	78.5757	4,287.6	73.9751	4,287.6	69.0219	4,287.6	75.0088	4,287.6	72.5111	4,287.6	73.9751	4,287.6	69.0219	4,287.6	78.6015	4,287.6	78.5757	4,287.6	82.2886	4,287.6	82.0416	4,287.6	85.2038	4,287.6	85.4369	4,287.6	87.9191	4,287.6	87.7082	4,287.6	87.19	4,287.6	86.5452	4,287.6	87.4485	4,287.6	87.1578	4,287.6	89.0283	4,287.6	88.9795	4,287.6	89.3862
4,438.48	89.2983	4,438.48	88.4061	4,438.48	88.3142	4,438.48	87.1097	4,438.48	86.8766	4,438.48	87.3045	4,438.48	87.0405	4,438.48	87.4113	4,438.48	87.4036	4,438.48	84.552	4,438.48	84.2177	4,438.48	83.4372	4,438.48	83.857	4,438.48	81.1366	4,438.48	81.0304	4,438.48	76.2566	4,438.48	74.4963	4,438.48	78.4347	4,438.48	76.3957	4,438.48	76.2566	4,438.48	74.4963	4,438.48	81.1366	4,438.48	81.0304	4,438.48	83.4372	4,438.48	83.857	4,438.48	84.552	4,438.48	84.2177	4,438.48	87.4113	4,438.48	87.4036	4,438.48	87.3045	4,438.48	87.0405	4,438.48	87.1097	4,438.48	86.8766	4,438.48	88.4061	4,438.48	88.3142	4,438.48	89.2983
4,595.21	88.7482	4,595.21	86.9238	4,595.21	87.4199	4,595.21	86.96	4,595.21	87.005	4,595.21	86.5187	4,595.21	86.5339	4,595.21	84.7994	4,595.21	85.7379	4,595.21	83.3193	4,595.21	83.3914	4,595.21	84.7365	4,595.21	84.5578	4,595.21	81.4198	4,595.21	82.0803	4,595.21	77.0867	4,595.21	75.5763	4,595.21	77.4631	4,595.21	77.9989	4,595.21	77.0867	4,595.21	75.5763	4,595.21	81.4198	4,595.21	82.0803	4,595.21	84.7365	4,595.21	84.5578	4,595.21	83.3193	4,595.21	83.3914	4,595.21	84.7994	4,595.21	85.7379	4,595.21	86.5187	4,595.21	86.5339	4,595.21	86.96	4,595.21	87.005	4,595.21	86.9238	4,595.21	87.4199	4,595.21	88.7482
4,756.35	88.6455	4,756.35	87.1596	4,756.35	87.0685	4,756.35	87.4695	4,756.35	87.6194	4,756.35	85.7385	4,756.35	85.7701	4,756.35	83.5173	4,756.35	83.3386	4,756.35	85.2498	4,756.35	84.853	4,756.35	84.7195	4,756.35	85.1301	4,756.35	80.8645	4,756.35	80.3319	4,756.35	76.1548	4,756.35	74.7477	4,756.35	79.0488	4,756.35	77.8968	4,756.35	76.1548	4,756.35	74.7477	4,756.35	80.8645	4,756.35	80.3319	4,756.35	84.7195	4,756.35	85.1301	4,756.35	85.2498	4,756.35	84.853	4,756.35	83.5173	4,756.35	83.3386	4,756.35	85.7385	4,756.35	85.7701	4,756.35	87.4695	4,756.35	87.6194	4,756.35	87.1596	4,756.35	87.0685	4,756.35	88.6455
4,924.8	86.8326	4,924.8	86.7437	4,924.8	86.7726	4,924.8	87.6488	4,924.8	87.819	4,924.8	84.6526	4,924.8	85.1764	4,924.8	84.2436	4,924.8	83.758	4,924.8	85.307	4,924.8	85.2954	4,924.8	83.2573	4,924.8	83.9917	4,924.8	75.1249	4,924.8	77.3404	4,924.8	68.7921	4,924.8	70.0446	4,924.8	72.1046	4,924.8	75.9543	4,924.8	68.7921	4,924.8	70.0446	4,924.8	75.1249	4,924.8	77.3404	4,924.8	83.2573	4,924.8	83.9917	4,924.8	85.307	4,924.8	85.2954	4,924.8	84.2436	4,924.8	83.758	4,924.8	84.6526	4,924.8	85.1764	4,924.8	87.6488	4,924.8	87.819	4,924.8	86.7437	4,924.8	86.7726	4,924.8	86.8326
5,097.66	85.4335	5,097.66	87.0213	5,097.66	86.7723	5,097.66	87.4172	5,097.66	88.2706	5,097.66	84.5066	5,097.66	84.5783	5,097.66	86.0807	5,097.66	84.7877	5,097.66	85.9545	5,097.66	85.8559	5,097.66	82.3518	5,097.66	82.4346	5,097.66	75.1066	5,097.66	74.4251	5,097.66	56.0615	5,097.66	63.265	5,097.66	71.2348	5,097.66	72.6146	5,097.66	56.0615	5,097.66	63.265	5,097.66	75.1066	5,097.66	74.4251	5,097.66	82.3518	5,097.66	82.4346	5,097.66	85.9545	5,097.66	85.8559	5,097.66	86.0807	5,097.66	84.7877	5,097.66	84.5066	5,097.66	84.5783	5,097.66	87.4172	5,097.66	88.2706	5,097.66	87.0213	5,097.66	86.7723	5,097.66	85.4335
5,277.83	85.4269	5,277.83	87.3769	5,277.83	87.0375	5,277.83	86.1008	5,277.83	86.9416	5,277.83	83.9221	5,277.83	82.981	5,277.83	86.9635	5,277.83	86.5793	5,277.83	84.2842	5,277.83	84.851	5,277.83	78.9794	5,277.83	79.3982	5,277.83	77.4874	5,277.83	76.6503	5,277.83	69.2548	5,277.83	69.8376	5,277.83	65.7436	5,277.83	64.9869	5,277.83	69.2548	5,277.83	69.8376	5,277.83	77.4874	5,277.83	76.6503	5,277.83	78.9794	5,277.83	79.3982	5,277.83	84.2842	5,277.83	84.851	5,277.83	86.9635	5,277.83	86.5793	5,277.83	83.9221	5,277.83	82.981	5,277.83	86.1008	5,277.83	86.9416	5,277.83	87.3769	5,277.83	87.0375	5,277.83	85.4269
5,463.87	87.3798	5,463.87	87.5018	5,463.87	87.6049	5,463.87	85.5778	5,463.87	85.982	5,463.87	86.531	5,463.87	86.0293	5,463.87	87.2653	5,463.87	87.1824	5,463.87	83.6672	5,463.87	84.4289	5,463.87	83.4881	5,463.87	83.5645	5,463.87	83.0024	5,463.87	82.9463	5,463.87	75.7988	5,463.87	74.6136	5,463.87	74.3249	5,463.87	71.1389	5,463.87	75.7988	5,463.87	74.6136	5,463.87	83.0024	5,463.87	82.9463	5,463.87	83.4881	5,463.87	83.5645	5,463.87	83.6672	5,463.87	84.4289	5,463.87	87.2653	5,463.87	87.1824	5,463.87	86.531	5,463.87	86.0293	5,463.87	85.5778	5,463.87	85.982	5,463.87	87.5018	5,463.87	87.6049	5,463.87	87.3798
5,657.23	87.5542	5,657.23	86.3668	5,657.23	86.5567	5,657.23	86.0236	5,657.23	85.8112	5,657.23	86.703	5,657.23	86.8773	5,657.23	84.8222	5,657.23	84.6452	5,657.23	84.6358	5,657.23	84.4139	5,657.23	85.2636	5,657.23	85.6262	5,657.23	82.8301	5,657.23	82.9331	5,657.23	75.7371	5,657.23	73.9176	5,657.23	73.555	5,657.23	71.9503	5,657.23	75.7371	5,657.23	73.9176	5,657.23	82.8301	5,657.23	82.9331	5,657.23	85.2636	5,657.23	85.6262	5,657.23	84.6358	5,657.23	84.4139	5,657.23	84.8222	5,657.23	84.6452	5,657.23	86.703	5,657.23	86.8773	5,657.23	86.0236	5,657.23	85.8112	5,657.23	86.3668	5,657.23	86.5567	5,657.23	87.5542
5,856.45	87.9062	5,856.45	86.1365	5,856.45	86.2381	5,856.45	86.6946	5,856.45	86.9101	5,856.45	86.1035	5,856.45	86.292	5,856.45	83.0125	5,856.45	82.5224	5,856.45	86.3876	5,856.45	85.8426	5,856.45	84.8817	5,856.45	85.6481	5,856.45	81.226	5,856.45	80.9629	5,856.45	72.298	5,856.45	69.9706	5,856.45	72.7089	5,856.45	64.4171	5,856.45	72.298	5,856.45	69.9706	5,856.45	81.226	5,856.45	80.9629	5,856.45	84.8817	5,856.45	85.6481	5,856.45	86.3876	5,856.45	85.8426	5,856.45	83.0125	5,856.45	82.5224	5,856.45	86.1035	5,856.45	86.292	5,856.45	86.6946	5,856.45	86.9101	5,856.45	86.1365	5,856.45	86.2381	5,856.45	87.9062
6,062.99	88.7767	6,062.99	87.4721	6,062.99	87.4872	6,062.99	87.3257	6,062.99	87.7558	6,062.99	85.5878	6,062.99	85.6163	6,062.99	82.6184	6,062.99	83.2442	6,062.99	86.8499	6,062.99	86.9128	6,062.99	83.4155	6,062.99	83.9164	6,062.99	78.7486	6,062.99	78.6693	6,062.99	72.1905	6,062.99	72.1877	6,062.99	70.1794	6,062.99	67.2094	6,062.99	72.1905	6,062.99	72.1877	6,062.99	78.7486	6,062.99	78.6693	6,062.99	83.4155	6,062.99	83.9164	6,062.99	86.8499	6,062.99	86.9128	6,062.99	82.6184	6,062.99	83.2442	6,062.99	85.5878	6,062.99	85.6163	6,062.99	87.3257	6,062.99	87.7558	6,062.99	87.4721	6,062.99	87.4872	6,062.99	88.7767
6,276.86	88.3973	6,276.86	88.4781	6,276.86	88.534	6,276.86	87.3727	6,276.86	87.6348	6,276.86	86.0738	6,276.86	86.2702	6,276.86	84.1382	6,276.86	84.2367	6,276.86	86.8172	6,276.86	86.3681	6,276.86	82.2626	6,276.86	82.524	6,276.86	80.0774	6,276.86	80.6698	6,276.86	77.0289	6,276.86	74.6708	6,276.86	77.3974	6,276.86	73.9925	6,276.86	77.0289	6,276.86	74.6708	6,276.86	80.0774	6,276.86	80.6698	6,276.86	82.2626	6,276.86	82.524	6,276.86	86.8172	6,276.86	86.3681	6,276.86	84.1382	6,276.86	84.2367	6,276.86	86.0738	6,276.86	86.2702	6,276.86	87.3727	6,276.86	87.6348	6,276.86	88.4781	6,276.86	88.534	6,276.86	88.3973
6,498.05	87.5215	6,498.05	88.9695	6,498.05	89.0456	6,498.05	87.1486	6,498.05	87.174	6,498.05	86.5509	6,498.05	86.8354	6,498.05	83.8776	6,498.05	84.1234	6,498.05	84.5041	6,498.05	84.5517	6,498.05	81.7982	6,498.05	82.7082	6,498.05	80.5486	6,498.05	81.8375	6,498.05	75.5537	6,498.05	74.3245	6,498.05	76.6266	6,498.05	75.8932	6,498.05	75.5537	6,498.05	74.3245	6,498.05	80.5486	6,498.05	81.8375	6,498.05	81.7982	6,498.05	82.7082	6,498.05	84.5041	6,498.05	84.5517	6,498.05	83.8776	6,498.05	84.1234	6,498.05	86.5509	6,498.05	86.8354	6,498.05	87.1486	6,498.05	87.174	6,498.05	88.9695	6,498.05	89.0456	6,498.05	87.5215
6,726.56	89.0611	6,726.56	89.5628	6,726.56	89.8863	6,726.56	87.6301	6,726.56	88.2267	6,726.56	87.2443	6,726.56	87.9022	6,726.56	82.8697	6,726.56	83.8477	6,726.56	83.4647	6,726.56	83.4986	6,726.56	83.3316	6,726.56	84.1346	6,726.56	80.1057	6,726.56	81.3145	6,726.56	74.3645	6,726.56	72.2766	6,726.56	73.1784	6,726.56	76.0705	6,726.56	74.3645	6,726.56	72.2766	6,726.56	80.1057	6,726.56	81.3145	6,726.56	83.3316	6,726.56	84.1346	6,726.56	83.4647	6,726.56	83.4986	6,726.56	82.8697	6,726.56	83.8477	6,726.56	87.2443	6,726.56	87.9022	6,726.56	87.6301	6,726.56	88.2267	6,726.56	89.5628	6,726.56	89.8863	6,726.56	89.0611
6,963.87	88.4076	6,963.87	88.392	6,963.87	88.7787	6,963.87	86.8644	6,963.87	87.2833	6,963.87	86.2671	6,963.87	86.8522	6,963.87	82.0246	6,963.87	82.4873	6,963.87	84.0085	6,963.87	83.1296	6,963.87	83.0121	6,963.87	83.7316	6,963.87	77.2185	6,963.87	79.3658	6,963.87	70.4538	6,963.87	68.0209	6,963.87	69.3013	6,963.87	74.6371	6,963.87	70.4538	6,963.87	68.0209	6,963.87	77.2185	6,963.87	79.3658	6,963.87	83.0121	6,963.87	83.7316	6,963.87	84.0085	6,963.87	83.1296	6,963.87	82.0246	6,963.87	82.4873	6,963.87	86.2671	6,963.87	86.8522	6,963.87	86.8644	6,963.87	87.2833	6,963.87	88.392	6,963.87	88.7787	6,963.87	88.4076
7,209.96	88.3802	7,209.96	88.2141	7,209.96	88.3406	7,209.96	87.293	7,209.96	87.5004	7,209.96	86.5922	7,209.96	86.6402	7,209.96	82.7321	7,209.96	82.7412	7,209.96	84.181	7,209.96	83.2979	7,209.96	81.4458	7,209.96	81.7344	7,209.96	75.3493	7,209.96	77.3716	7,209.96	71.2445	7,209.96	65.9451	7,209.96	68.8398	7,209.96	72.8978	7,209.96	71.2445	7,209.96	65.9451	7,209.96	75.3493	7,209.96	77.3716	7,209.96	81.4458	7,209.96	81.7344	7,209.96	84.181	7,209.96	83.2979	7,209.96	82.7321	7,209.96	82.7412	7,209.96	86.5922	7,209.96	86.6402	7,209.96	87.293	7,209.96	87.5004	7,209.96	88.2141	7,209.96	88.3406	7,209.96	88.3802
7,464.84	89.0475	7,464.84	87.9511	7,464.84	88.219	7,464.84	87.3329	7,464.84	87.7815	7,464.84	85.6103	7,464.84	86.3447	7,464.84	83.3546	7,464.84	83.5686	7,464.84	82.5549	7,464.84	82.9478	7,464.84	80.825	7,464.84	81.5852	7,464.84	78.0884	7,464.84	79.4192	7,464.84	72.0318	7,464.84	72.1197	7,464.84	71.2799	7,464.84	75.0281	7,464.84	72.0318	7,464.84	72.1197	7,464.84	78.0884	7,464.84	79.4192	7,464.84	80.825	7,464.84	81.5852	7,464.84	82.5549	7,464.84	82.9478	7,464.84	83.3546	7,464.84	83.5686	7,464.84	85.6103	7,464.84	86.3447	7,464.84	87.3329	7,464.84	87.7815	7,464.84	87.9511	7,464.84	88.219	7,464.84	89.0475
7,727.05	88.4704	7,727.05	87.2147	7,727.05	87.6404	7,727.05	86.4047	7,727.05	87.1851	7,727.05	84.6239	7,727.05	85.2086	7,727.05	83.8887	7,727.05	83.639	7,727.05	81.3834	7,727.05	81.0985	7,727.05	81.9145	7,727.05	81.9217	7,727.05	78.7464	7,727.05	79.9445	7,727.05	68.7487	7,727.05	70.5769	7,727.05	64.0331	7,727.05	72.2455	7,727.05	68.7487	7,727.05	70.5769	7,727.05	78.7464	7,727.05	79.9445	7,727.05	81.9145	7,727.05	81.9217	7,727.05	81.3834	7,727.05	81.0985	7,727.05	83.8887	7,727.05	83.639	7,727.05	84.6239	7,727.05	85.2086	7,727.05	86.4047	7,727.05	87.1851	7,727.05	87.2147	7,727.05	87.6404	7,727.05	88.4704
7,999.51	88.5366	7,999.51	87.6487	7,999.51	87.9961	7,999.51	86.9002	7,999.51	87.3056	7,999.51	85.0913	7,999.51	85.6091	7,999.51	84.3165	7,999.51	84.0562	7,999.51	81.6004	7,999.51	81.7564	7,999.51	82.5708	7,999.51	82.8308	7,999.51	77.5284	7,999.51	79.0714	7,999.51	68.7669	7,999.51	68.9006	7,999.51	62.2383	7,999.51	69.2584	7,999.51	68.7669	7,999.51	68.9006	7,999.51	77.5284	7,999.51	79.0714	7,999.51	82.5708	7,999.51	82.8308	7,999.51	81.6004	7,999.51	81.7564	7,999.51	84.3165	7,999.51	84.0562	7,999.51	85.0913	7,999.51	85.6091	7,999.51	86.9002	7,999.51	87.3056	7,999.51	87.6487	7,999.51	87.9961	7,999.51	88.5366
8,282.23	88.4757	8,282.23	88.0562	8,282.23	88.0824	8,282.23	87.4065	8,282.23	87.4483	8,282.23	85.3292	8,282.23	85.2163	8,282.23	84.6695	8,282.23	83.9232	8,282.23	82.2353	8,282.23	82.5934	8,282.23	81.7441	8,282.23	81.9654	8,282.23	77.4996	8,282.23	77.6101	8,282.23	71.7752	8,282.23	71.4415	8,282.23	65.4215	8,282.23	66.6419	8,282.23	71.7752	8,282.23	71.4415	8,282.23	77.4996	8,282.23	77.6101	8,282.23	81.7441	8,282.23	81.9654	8,282.23	82.2353	8,282.23	82.5934	8,282.23	84.6695	8,282.23	83.9232	8,282.23	85.3292	8,282.23	85.2163	8,282.23	87.4065	8,282.23	87.4483	8,282.23	88.0562	8,282.23	88.0824	8,282.23	88.4757
8,573.73	89.0645	8,573.73	88.641	8,573.73	88.9045	8,573.73	87.4806	8,573.73	87.9138	8,573.73	85.6972	8,573.73	86.1668	8,573.73	84.9678	8,573.73	84.5092	8,573.73	82.2001	8,573.73	83.349	8,573.73	81.7778	8,573.73	82.3888	8,573.73	79.998	8,573.73	80.108	8,573.73	72.9696	8,573.73	73.6782	8,573.73	68.8826	8,573.73	69.7434	8,573.73	72.9696	8,573.73	73.6782	8,573.73	79.998	8,573.73	80.108	8,573.73	81.7778	8,573.73	82.3888	8,573.73	82.2001	8,573.73	83.349	8,573.73	84.9678	8,573.73	84.5092	8,573.73	85.6972	8,573.73	86.1668	8,573.73	87.4806	8,573.73	87.9138	8,573.73	88.641	8,573.73	88.9045	8,573.73	89.0645
8,876.95	88.9963	8,876.95	88.5589	8,876.95	88.7628	8,876.95	87.4136	8,876.95	87.8255	8,876.95	86.357	8,876.95	86.6212	8,876.95	85.025	8,876.95	84.9159	8,876.95	82.1112	8,876.95	82.7999	8,876.95	81.8025	8,876.95	81.9352	8,876.95	79.1636	8,876.95	78.7227	8,876.95	68.9592	8,876.95	70.3424	8,876.95	68.5889	8,876.95	72.7207	8,876.95	68.9592	8,876.95	70.3424	8,876.95	79.1636	8,876.95	78.7227	8,876.95	81.8025	8,876.95	81.9352	8,876.95	82.1112	8,876.95	82.7999	8,876.95	85.025	8,876.95	84.9159	8,876.95	86.357	8,876.95	86.6212	8,876.95	87.4136	8,876.95	87.8255	8,876.95	88.5589	8,876.95	88.7628	8,876.95	88.9963
9,188.96	89.2621	9,188.96	89.0421	9,188.96	89.1855	9,188.96	88.001	9,188.96	88.4438	9,188.96	86.3266	9,188.96	87.1541	9,188.96	84.8056	9,188.96	85.125	9,188.96	81.5307	9,188.96	82.5117	9,188.96	80.7822	9,188.96	81.9077	9,188.96	78.2393	9,188.96	77.3977	9,188.96	69.0812	9,188.96	69.9597	9,188.96	64.3491	9,188.96	72.551	9,188.96	69.0812	9,188.96	69.9597	9,188.96	78.2393	9,188.96	77.3977	9,188.96	80.7822	9,188.96	81.9077	9,188.96	81.5307	9,188.96	82.5117	9,188.96	84.8056	9,188.96	85.125	9,188.96	86.3266	9,188.96	87.1541	9,188.96	88.001	9,188.96	88.4438	9,188.96	89.0421	9,188.96	89.1855	9,188.96	89.2621
9,514.16	89.0369	9,514.16	88.7285	9,514.16	89.0176	9,514.16	87.9881	9,514.16	88.2537	9,514.16	85.5657	9,514.16	87.0875	9,514.16	83.9203	9,514.16	84.6558	9,514.16	81.7722	9,514.16	82.5368	9,514.16	78.536	9,514.16	79.5995	9,514.16	77.6158	9,514.16	75.8259	9,514.16	68.0867	9,514.16	68.9167	9,514.16	62.8081	9,514.16	70.8032	9,514.16	68.0867	9,514.16	68.9167	9,514.16	77.6158	9,514.16	75.8259	9,514.16	78.536	9,514.16	79.5995	9,514.16	81.7722	9,514.16	82.5368	9,514.16	83.9203	9,514.16	84.6558	9,514.16	85.5657	9,514.16	87.0875	9,514.16	87.9881	9,514.16	88.2537	9,514.16	88.7285	9,514.16	89.0176	9,514.16	89.0369
9,849.61	88.8953	9,849.61	88.3183	9,849.61	88.9704	9,849.61	87.5111	9,849.61	88.0186	9,849.61	84.8779	9,849.61	87.3589	9,849.61	83.3727	9,849.61	84.5219	9,849.61	81.2775	9,849.61	81.9062	9,849.61	77.1628	9,849.61	78.7308	9,849.61	77.5981	9,849.61	75.3485	9,849.61	67.0763	9,849.61	67.1546	9,849.61	63.3679	9,849.61	67.3592	9,849.61	67.0763	9,849.61	67.1546	9,849.61	77.5981	9,849.61	75.3485	9,849.61	77.1628	9,849.61	78.7308	9,849.61	81.2775	9,849.61	81.9062	9,849.61	83.3727	9,849.61	84.5219	9,849.61	84.8779	9,849.61	87.3589	9,849.61	87.5111	9,849.61	88.0186	9,849.61	88.3183	9,849.61	88.9704	9,849.61	88.8953
10,196.8	87.8937	10,196.8	87.178	10,196.8	88.3079	10,196.8	86.7924	10,196.8	87.059	10,196.8	83.0458	10,196.8	86.1366	10,196.8	82.0176	10,196.8	83.2525	10,196.8	79.5564	10,196.8	79.8551	10,196.8	76.7884	10,196.8	78.7932	10,196.8	76.3597	10,196.8	75.1163	10,196.8	68.3522	10,196.8	65.7526	10,196.8	71.4611	10,196.8	65.79	10,196.8	68.3522	10,196.8	65.7526	10,196.8	76.3597	10,196.8	75.1163	10,196.8	76.7884	10,196.8	78.7932	10,196.8	79.5564	10,196.8	79.8551	10,196.8	82.0176	10,196.8	83.2525	10,196.8	83.0458	10,196.8	86.1366	10,196.8	86.7924	10,196.8	87.059	10,196.8	87.178	10,196.8	88.3079	10,196.8	87.8937
10,555.7	86.7365	10,555.7	85.6627	10,555.7	87.1929	10,555.7	86.2034	10,555.7	85.7004	10,555.7	81.5005	10,555.7	84.8625	10,555.7	80.1553	10,555.7	81.6084	10,555.7	78.6261	10,555.7	78.3427	10,555.7	75.3032	10,555.7	77.3138	10,555.7	74.5274	10,555.7	73.9578	10,555.7	69.633	10,555.7	67.8288	10,555.7	72.7981	10,555.7	69.677	10,555.7	69.633	10,555.7	67.8288	10,555.7	74.5274	10,555.7	73.9578	10,555.7	75.3032	10,555.7	77.3138	10,555.7	78.6261	10,555.7	78.3427	10,555.7	80.1553	10,555.7	81.6084	10,555.7	81.5005	10,555.7	84.8625	10,555.7	86.2034	10,555.7	85.7004	10,555.7	85.6627	10,555.7	87.1929	10,555.7	86.7365
10,927.7	83.9591	10,927.7	83.0065	10,927.7	84.5954	10,927.7	84.7683	10,927.7	83.7295	10,927.7	80.3034	10,927.7	83.0486	10,927.7	77.3826	10,927.7	79.0518	10,927.7	75.9417	10,927.7	74.7906	10,927.7	73.4419	10,927.7	76.1572	10,927.7	73.9644	10,927.7	74.2579	10,927.7	68.5508	10,927.7	69.4441	10,927.7	73.2266	10,927.7	71.4011	10,927.7	68.5508	10,927.7	69.4441	10,927.7	73.9644	10,927.7	74.2579	10,927.7	73.4419	10,927.7	76.1572	10,927.7	75.9417	10,927.7	74.7906	10,927.7	77.3826	10,927.7	79.0518	10,927.7	80.3034	10,927.7	83.0486	10,927.7	84.7683	10,927.7	83.7295	10,927.7	83.0065	10,927.7	84.5954	10,927.7	83.9591
11,313	79.2011	11,313	79.3242	11,313	79.6305	11,313	82.2289	11,313	80.9111	11,313	79.2709	11,313	79.5207	11,313	74.4762	11,313	76.2382	11,313	72.7983	11,313	70.2973	11,313	72.8748	11,313	74.4298	11,313	69.4982	11,313	71.3939	11,313	64.1128	11,313	67.4423	11,313	68.7145	11,313	71.8051	11,313	64.1128	11,313	67.4423	11,313	69.4982	11,313	71.3939	11,313	72.8748	11,313	74.4298	11,313	72.7983	11,313	70.2973	11,313	74.4762	11,313	76.2382	11,313	79.2709	11,313	79.5207	11,313	82.2289	11,313	80.9111	11,313	79.3242	11,313	79.6305	11,313	79.2011
11,712.9	74.6368	11,712.9	76.0645	11,712.9	71.4172	11,712.9	79.5788	11,712.9	78.1013	11,712.9	79.6622	11,712.9	74.4292	11,712.9	70.9527	11,712.9	71.8766	11,712.9	68.4178	11,712.9	64.4846	11,712.9	71.3885	11,712.9	70.0935	11,712.9	67.2168	11,712.9	69.6234	11,712.9	57.5297	11,712.9	67.4935	11,712.9	69.198	11,712.9	68.0963	11,712.9	57.5297	11,712.9	67.4935	11,712.9	67.2168	11,712.9	69.6234	11,712.9	71.3885	11,712.9	70.0935	11,712.9	68.4178	11,712.9	64.4846	11,712.9	70.9527	11,712.9	71.8766	11,712.9	79.6622	11,712.9	74.4292	11,712.9	79.5788	11,712.9	78.1013	11,712.9	76.0645	11,712.9	71.4172	11,712.9	74.6368
12,126	75.0485	12,126	73.8841	12,126	69.34	12,126	76.7574	12,126	74.1722	12,126	79.2585	12,126	69.6383	12,126	69.9854	12,126	69.5005	12,126	62.6866	12,126	66.466	12,126	70.306	12,126	66.8278	12,126	60.7161	12,126	69.4216	12,126	58.6397	12,126	64.2117	12,126	73.1067	12,126	67.7443	12,126	58.6397	12,126	64.2117	12,126	60.7161	12,126	69.4216	12,126	70.306	12,126	66.8278	12,126	62.6866	12,126	66.466	12,126	69.9854	12,126	69.5005	12,126	79.2585	12,126	69.6383	12,126	76.7574	12,126	74.1722	12,126	73.8841	12,126	69.34	12,126	75.0485
12,553.7	75.8094	12,553.7	71.8462	12,553.7	71.3945	12,553.7	75.5121	12,553.7	68.0363	12,553.7	78.5694	12,553.7	66.6617	12,553.7	71.5324	12,553.7	70.1008	12,553.7	64.6396	12,553.7	68.7581	12,553.7	68.5783	12,553.7	60.8823	12,553.7	66.3288	12,553.7	65.9408	12,553.7	62.8061	12,553.7	62.2109	12,553.7	73.8231	12,553.7	68.4064	12,553.7	62.8061	12,553.7	62.2109	12,553.7	66.3288	12,553.7	65.9408	12,553.7	68.5783	12,553.7	60.8823	12,553.7	64.6396	12,553.7	68.7581	12,553.7	71.5324	12,553.7	70.1008	12,553.7	78.5694	12,553.7	66.6617	12,553.7	75.5121	12,553.7	68.0363	12,553.7	71.8462	12,553.7	71.3945	12,553.7	75.8094
12,996.1	75.522	12,996.1	69.5577	12,996.1	69.9745	12,996.1	74.8513	12,996.1	63.046	12,996.1	74.718	12,996.1	62.391	12,996.1	71.8039	12,996.1	66.9259	12,996.1	66.0932	12,996.1	65.7677	12,996.1	68.1313	12,996.1	60.2101	12,996.1	66.5918	12,996.1	63.8944	12,996.1	62.1945	12,996.1	61.2627	12,996.1	72.1725	12,996.1	66.7377	12,996.1	62.1945	12,996.1	61.2627	12,996.1	66.5918	12,996.1	63.8944	12,996.1	68.1313	12,996.1	60.2101	12,996.1	66.0932	12,996.1	65.7677	12,996.1	71.8039	12,996.1	66.9259	12,996.1	74.718	12,996.1	62.391	12,996.1	74.8513	12,996.1	63.046	12,996.1	69.5577	12,996.1	69.9745	12,996.1	75.522
13,454.6	75.1243	13,454.6	58.3155	13,454.6	58.8135	13,454.6	73.4685	13,454.6	69.0387	13,454.6	68.9817	13,454.6	59.0191	13,454.6	69.1265	13,454.6	58.9123	13,454.6	64.0657	13,454.6	64.3085	13,454.6	68.4505	13,454.6	61.5328	13,454.6	60.4289	13,454.6	64.7808	13,454.6	61.1894	13,454.6	58.7997	13,454.6	69.3091	13,454.6	55.5595	13,454.6	61.1894	13,454.6	58.7997	13,454.6	60.4289	13,454.6	64.7808	13,454.6	68.4505	13,454.6	61.5328	13,454.6	64.0657	13,454.6	64.3085	13,454.6	69.1265	13,454.6	58.9123	13,454.6	68.9817	13,454.6	59.0191	13,454.6	73.4685	13,454.6	69.0387	13,454.6	58.3155	13,454.6	58.8135	13,454.6	75.1243
13,929.2	76.6171	13,929.2	60.4476	13,929.2	60.313	13,929.2	70.6612	13,929.2	73.77	13,929.2	61.0568	13,929.2	63.5445	13,929.2	68.6564	13,929.2	56.0086	13,929.2	52.079	13,929.2	66.2111	13,929.2	71.2748	13,929.2	62.7861	13,929.2	61.5618	13,929.2	58.5323	13,929.2	63.1887	13,929.2	58.3572	13,929.2	70.3146	13,929.2	59.048	13,929.2	63.1887	13,929.2	58.3572	13,929.2	61.5618	13,929.2	58.5323	13,929.2	71.2748	13,929.2	62.7861	13,929.2	52.079	13,929.2	66.2111	13,929.2	68.6564	13,929.2	56.0086	13,929.2	61.0568	13,929.2	63.5445	13,929.2	70.6612	13,929.2	73.77	13,929.2	60.4476	13,929.2	60.313	13,929.2	76.6171
14,419.9	78.0804	14,419.9	65.6568	14,419.9	69.2602	14,419.9	66.8003	14,419.9	76.3626	14,419.9	65.0858	14,419.9	65.5148	14,419.9	70.2303	14,419.9	64.8475	14,419.9	43.5725	14,419.9	65.8365	14,419.9	71.1087	14,419.9	65.2782	14,419.9	66.4602	14,419.9	57.0748	14,419.9	65.6724	14,419.9	60.7714	14,419.9	71.5047	14,419.9	62.2156	14,419.9	65.6724	14,419.9	60.7714	14,419.9	66.4602	14,419.9	57.0748	14,419.9	71.1087	14,419.9	65.2782	14,419.9	43.5725	14,419.9	65.8365	14,419.9	70.2303	14,419.9	64.8475	14,419.9	65.0858	14,419.9	65.5148	14,419.9	66.8003	14,419.9	76.3626	14,419.9	65.6568	14,419.9	69.2602	14,419.9	78.0804
14,928.2	76.8316	14,928.2	67.0103	14,928.2	74.6708	14,928.2	64.1721	14,928.2	76.6131	14,928.2	69.2421	14,928.2	68.2559	14,928.2	68.1025	14,928.2	66.6449	14,928.2	58.0505	14,928.2	66.6442	14,928.2	71.0354	14,928.2	63.7233	14,928.2	68.1427	14,928.2	56.8069	14,928.2	64.1223	14,928.2	60.7758	14,928.2	70.0052	14,928.2	67.4769	14,928.2	64.1223	14,928.2	60.7758	14,928.2	68.1427	14,928.2	56.8069	14,928.2	71.0354	14,928.2	63.7233	14,928.2	58.0505	14,928.2	66.6442	14,928.2	68.1025	14,928.2	66.6449	14,928.2	69.2421	14,928.2	68.2559	14,928.2	64.1721	14,928.2	76.6131	14,928.2	67.0103	14,928.2	74.6708	14,928.2	76.8316
15,455.6	74.2434	15,455.6	68.5197	15,455.6	76.9124	15,455.6	63.6589	15,455.6	75.2036	15,455.6	70.9205	15,455.6	67.3037	15,455.6	63.1772	15,455.6	67.0714	15,455.6	60.582	15,455.6	65.5044	15,455.6	68.8921	15,455.6	62.8939	15,455.6	66.8203	15,455.6	57.6973	15,455.6	54.0338	15,455.6	56.5051	15,455.6	67.8706	15,455.6	73.2478	15,455.6	54.0338	15,455.6	56.5051	15,455.6	66.8203	15,455.6	57.6973	15,455.6	68.8921	15,455.6	62.8939	15,455.6	60.582	15,455.6	65.5044	15,455.6	63.1772	15,455.6	67.0714	15,455.6	70.9205	15,455.6	67.3037	15,455.6	63.6589	15,455.6	75.2036	15,455.6	68.5197	15,455.6	76.9124	15,455.6	74.2434
16,000.5	70.0219	16,000.5	68.9522	16,000.5	77.5372	16,000.5	65.4103	16,000.5	73.5772	16,000.5	69.9483	16,000.5	62.9771	16,000.5	57.3035	16,000.5	60.3196	16,000.5	63.3504	16,000.5	66.4785	16,000.5	66.3758	16,000.5	61.0257	16,000.5	62.9744	16,000.5	60.337	16,000.5	62.6264	16,000.5	58.8957	16,000.5	67.7683	16,000.5	74.1307	16,000.5	62.6264	16,000.5	58.8957	16,000.5	62.9744	16,000.5	60.337	16,000.5	66.3758	16,000.5	61.0257	16,000.5	63.3504	16,000.5	66.4785	16,000.5	57.3035	16,000.5	60.3196	16,000.5	69.9483	16,000.5	62.9771	16,000.5	65.4103	16,000.5	73.5772	16,000.5	68.9522	16,000.5	77.5372	16,000.5	70.0219
16,564.5	66.5336	16,564.5	67.2803	16,564.5	76.9972	16,564.5	67.0844	16,564.5	72.1063	16,564.5	65.941	16,564.5	58.9997	16,564.5	64.9578	16,564.5	60.9219	16,564.5	64.2063	16,564.5	69.4989	16,564.5	60.23	16,564.5	63.3154	16,564.5	57.8955	16,564.5	58.4165	16,564.5	66.8209	16,564.5	61.1418	16,564.5	66.3215	16,564.5	72.5389	16,564.5	66.8209	16,564.5	61.1418	16,564.5	57.8955	16,564.5	58.4165	16,564.5	60.23	16,564.5	63.3154	16,564.5	64.2063	16,564.5	69.4989	16,564.5	64.9578	16,564.5	60.9219	16,564.5	65.941	16,564.5	58.9997	16,564.5	67.0844	16,564.5	72.1063	16,564.5	67.2803	16,564.5	76.9972	16,564.5	66.5336
17,148.9	69.8874	17,148.9	68.2179	17,148.9	74.8125	17,148.9	67.6322	17,148.9	71.579	17,148.9	62.5344	17,148.9	69.1527	17,148.9	67.9899	17,148.9	65.2583	17,148.9	64.3619	17,148.9	68.9259	17,148.9	61.255	17,148.9	62.5297	17,148.9	62.4593	17,148.9	58.9183	17,148.9	67.0146	17,148.9	60.5411	17,148.9	65.3526	17,148.9	68.3024	17,148.9	67.0146	17,148.9	60.5411	17,148.9	62.4593	17,148.9	58.9183	17,148.9	61.255	17,148.9	62.5297	17,148.9	64.3619	17,148.9	68.9259	17,148.9	67.9899	17,148.9	65.2583	17,148.9	62.5344	17,148.9	69.1527	17,148.9	67.6322	17,148.9	71.579	17,148.9	68.2179	17,148.9	74.8125	17,148.9	69.8874
17,752.4	72.4894	17,752.4	69.3888	17,752.4	70.8558	17,752.4	65.182	17,752.4	72.4487	17,752.4	59.6836	17,752.4	72.966	17,752.4	67.2297	17,752.4	65.7296	17,752.4	64.4536	17,752.4	66.293	17,752.4	63.7945	17,752.4	59.908	17,752.4	63.4677	17,752.4	56.4607	17,752.4	64.0371	17,752.4	57.1649	17,752.4	66.9497	17,752.4	58.1807	17,752.4	64.0371	17,752.4	57.1649	17,752.4	63.4677	17,752.4	56.4607	17,752.4	63.7945	17,752.4	59.908	17,752.4	64.4536	17,752.4	66.293	17,752.4	67.2297	17,752.4	65.7296	17,752.4	59.6836	17,752.4	72.966	17,752.4	65.182	17,752.4	72.4487	17,752.4	69.3888	17,752.4	70.8558	17,752.4	72.4894
18,379.4	72.954	18,379.4	70.8563	18,379.4	67.7192	18,379.4	59.8019	18,379.4	73.2229	18,379.4	63.521	18,379.4	72.3606	18,379.4	63.9023	18,379.4	66.0927	18,379.4	63.827	18,379.4	63.1242	18,379.4	63.3023	18,379.4	59.0539	18,379.4	61.2331	18,379.4	48.1534	18,379.4	57.2559	18,379.4	51.4054	18,379.4	66.6482	18,379.4	62.1678	18,379.4	57.2559	18,379.4	51.4054	18,379.4	61.2331	18,379.4	48.1534	18,379.4	63.3023	18,379.4	59.0539	18,379.4	63.827	18,379.4	63.1242	18,379.4	63.9023	18,379.4	66.0927	18,379.4	63.521	18,379.4	72.3606	18,379.4	59.8019	18,379.4	73.2229	18,379.4	70.8563	18,379.4	67.7192	18,379.4	72.954
19,026.9	72.7888	19,026.9	71.3507	19,026.9	66.8229	19,026.9	55.5486	19,026.9	73.7161	19,026.9	68.3936	19,026.9	69.6183	19,026.9	54.8933	19,026.9	65.2422	19,026.9	61.5842	19,026.9	60.468	19,026.9	62.0506	19,026.9	60.8033	19,026.9	59.1883	19,026.9	42.4585	19,026.9	52.806	19,026.9	49.1103	19,026.9	64.9377	19,026.9	62.8406	19,026.9	52.806	19,026.9	49.1103	19,026.9	59.1883	19,026.9	42.4585	19,026.9	62.0506	19,026.9	60.8033	19,026.9	61.5842	19,026.9	60.468	19,026.9	54.8933	19,026.9	65.2422	19,026.9	68.3936	19,026.9	69.6183	19,026.9	55.5486	19,026.9	73.7161	19,026.9	71.3507	19,026.9	66.8229	19,026.9	72.7888
19,697.8	71.5647	19,697.8	71.1119	19,697.8	64.1844	19,697.8	51.6532	19,697.8	74.4895	19,697.8	68.7969	19,697.8	70.6763	19,697.8	53.7439	19,697.8	62.2532	19,697.8	60.2605	19,697.8	55.1813	19,697.8	59.1317	19,697.8	61.2112	19,697.8	60.0867	19,697.8	55.9108	19,697.8	57.7972	19,697.8	53.1393	19,697.8	61.6261	19,697.8	60.1641	19,697.8	57.7972	19,697.8	53.1393	19,697.8	60.0867	19,697.8	55.9108	19,697.8	59.1317	19,697.8	61.2112	19,697.8	60.2605	19,697.8	55.1813	19,697.8	53.7439	19,697.8	62.2532	19,697.8	68.7969	19,697.8	70.6763	19,697.8	51.6532	19,697.8	74.4895	19,697.8	71.1119	19,697.8	64.1844	19,697.8	71.5647
19,999.5	70.9189	19,999.5	69.5879	19,999.5	60.5961	19,999.5	53.4356	19,999.5	74.8471	19,999.5	67.5093	19,999.5	71.5524	19,999.5	59.3944	19,999.5	60.7026	19,999.5	60.4483	19,999.5	51.3022	19,999.5	56.9547	19,999.5	61.649	19,999.5	60.1303	19,999.5	60.9818	19,999.5	58.7402	19,999.5	53.046	19,999.5	56.786	19,999.5	57.6746	19,999.5	58.7402	19,999.5	53.046	19,999.5	60.1303	19,999.5	60.9818	19,999.5	56.9547	19,999.5	61.649	19,999.5	60.4483	19,999.5	51.3022	19,999.5	59.3944	19,999.5	60.7026	19,999.5	67.5093	19,999.5	71.5524	19,999.5	53.4356	19,999.5	74.8471	19,999.5	69.5879	19,999.5	60.5961	19,999.5	70.9189
