"SPL Horizontal"
"On-Axis"		"10°"		"-10°"		"20°"		"-20°"		"30°"		"-30°"		"40°"		"-40°"		"50°"		"-50°"		"60°"		"-60°"		"70°"		"-70°"		"80°"		"-80°"		"90°"		"-90°"		"100°"		"-100°"		"110°"		"-110°"		"120°"		"-120°"		"130°"		"-130°"		"140°"		"-140°"		"150°"		"-150°"		"160°"		"-160°"		"170°"		"-170°"		"180°"
"Frequency [Hz]"	"Sound Pessure Level [dB]  / [2.83V 1m] "	"Frequency [Hz]"	"Sound Pessure Level [dB]  / [2.83V 1m] "	"Frequency [Hz]"	"Sound Pessure Level [dB]  / [2.83V 1m] "	"Frequency [Hz]"	"Sound Pessure Level [dB]  / [2.83V 1m] "	"Frequency [Hz]"	"Sound Pessure Level [dB]  / [2.83V 1m] "	"Frequency [Hz]"	"Sound Pessure Level [dB]  / [2.83V 1m] "	"Frequency [Hz]"	"Sound Pessure Level [dB]  / [2.83V 1m] "	"Frequency [Hz]"	"Sound Pessure Level [dB]  / [2.83V 1m] "	"Frequency [Hz]"	"Sound Pessure Level [dB]  / [2.83V 1m] "	"Frequency [Hz]"	"Sound Pessure Level [dB]  / [2.83V 1m] "	"Frequency [Hz]"	"Sound Pessure Level [dB]  / [2.83V 1m] "	"Frequency [Hz]"	"Sound Pessure Level [dB]  / [2.83V 1m] "	"Frequency [Hz]"	"Sound Pessure Level [dB]  / [2.83V 1m] "	"Frequency [Hz]"	"Sound Pessure Level [dB]  / [2.83V 1m] "	"Frequency [Hz]"	"Sound Pessure Level [dB]  / [2.83V 1m] "	"Frequency [Hz]"	"Sound Pessure Level [dB]  / [2.83V 1m] "	"Frequency [Hz]"	"Sound Pessure Level [dB]  / [2.83V 1m] "	"Frequency [Hz]"	"Sound Pessure Level [dB]  / [2.83V 1m] "	"Frequency [Hz]"	"Sound Pessure Level [dB]  / [2.83V 1m] "	"Frequency [Hz]"	"Sound Pessure Level [dB]  / [2.83V 1m] "	"Frequency [Hz]"	"Sound Pessure Level [dB]  / [2.83V 1m] "	"Frequency [Hz]"	"Sound Pessure Level [dB]  / [2.83V 1m] "	"Frequency [Hz]"	"Sound Pessure Level [dB]  / [2.83V 1m] "	"Frequency [Hz]"	"Sound Pessure Level [dB]  / [2.83V 1m] "	"Frequency [Hz]"	"Sound Pessure Level [dB]  / [2.83V 1m] "	"Frequency [Hz]"	"Sound Pessure Level [dB]  / [2.83V 1m] "	"Frequency [Hz]"	"Sound Pessure Level [dB]  / [2.83V 1m] "	"Frequency [Hz]"	"Sound Pessure Level [dB]  / [2.83V 1m] "	"Frequency [Hz]"	"Sound Pessure Level [dB]  / [2.83V 1m] "	"Frequency [Hz]"	"Sound Pessure Level [dB]  / [2.83V 1m] "	"Frequency [Hz]"	"Sound Pessure Level [dB]  / [2.83V 1m] "	"Frequency [Hz]"	"Sound Pessure Level [dB]  / [2.83V 1m] "	"Frequency [Hz]"	"Sound Pessure Level [dB]  / [2.83V 1m] "	"Frequency [Hz]"	"Sound Pessure Level [dB]  / [2.83V 1m] "	"Frequency [Hz]"	"Sound Pessure Level [dB]  / [2.83V 1m] "	"Frequency [Hz]"	"Sound Pessure Level [dB]  / [2.83V 1m] "
20.5078	66.672	20.5078	66.3397	20.5078	66.7682	20.5078	65.7774	20.5078	66.6198	20.5078	65.0034	20.5078	66.2105	20.5078	64.0838	20.5078	65.5154	20.5078	63.2088	20.5078	64.5111	20.5078	62.7749	20.5078	63.2242	20.5078	63.2159	20.5078	61.902	20.5078	64.5155	20.5078	61.3279	20.5078	66.2319	20.5078	62.3463	20.5078	67.9832	20.5078	64.4665	20.5078	69.5904	20.5078	66.7379	20.5078	70.9915	20.5078	68.7599	20.5078	72.1685	20.5078	70.4548	20.5078	73.1159	20.5078	71.8321	20.5078	73.8299	20.5078	72.9133	20.5078	74.306	20.5078	73.7152	20.5078	74.5384	20.5078	74.2487	20.5078	74.5212
21.9727	68.4737	21.9727	68.6165	21.9727	68.2853	21.9727	68.7322	21.9727	68.0836	21.9727	68.8835	21.9727	67.9593	21.9727	69.1667	21.9727	68.0568	21.9727	69.6799	21.9727	68.5233	21.9727	70.4734	21.9727	69.413	21.9727	71.5181	21.9727	70.6411	21.9727	72.7266	21.9727	72.0505	21.9727	74.0002	21.9727	73.5009	21.9727	75.2604	21.9727	74.9013	21.9727	76.4548	21.9727	76.2018	21.9727	77.5499	21.9727	77.3755	21.9727	78.5221	21.9727	78.4052	21.9727	79.3518	21.9727	79.2763	21.9727	80.0209	21.9727	79.9746	21.9727	80.5124	21.9727	80.4864	21.9727	80.8119	21.9727	80.8003	21.9727	80.9094
23.4375	75.799	23.4375	75.7824	23.4375	75.7952	23.4375	75.7576	23.4375	75.7787	23.4375	75.756	23.4375	75.7766	23.4375	75.8247	23.4375	75.835	23.4375	76.0183	23.4375	76.0127	23.4375	76.3828	23.4375	76.3652	23.4375	76.9372	23.4375	76.9222	23.4375	77.6646	23.4375	77.671	23.4375	78.5197	23.4375	78.5606	23.4375	79.4445	23.4375	79.5224	23.4375	80.3831	23.4375	80.4907	23.4375	81.2881	23.4375	81.4123	23.4375	82.1208	23.4375	82.2472	23.4375	82.8499	23.4375	82.9655	23.4375	83.4497	23.4375	83.5444	23.4375	83.8993	23.4375	83.966	23.4375	84.1828	23.4375	84.2172	23.4375	84.2902
24.9023	78.0676	24.9023	78.054	24.9023	78.0227	24.9023	77.9935	24.9023	77.9257	24.9023	77.9162	24.9023	77.8021	24.9023	77.8728	24.9023	77.7001	24.9023	77.9321	24.9023	77.6904	24.9023	78.167	24.9023	77.8553	24.9023	78.6272	24.9023	78.2599	24.9023	79.3141	24.9023	78.9189	24.9023	80.1785	24.9023	79.7864	24.9023	81.1444	24.9023	80.78	24.9023	82.1357	24.9023	81.8139	24.9023	83.0905	24.9023	82.8179	24.9023	83.9622	24.9023	83.7404	24.9023	84.7164	24.9023	84.544	24.9023	85.3266	24.9023	85.2009	24.9023	85.7723	24.9023	85.6904	24.9023	86.0383	24.9023	85.998	24.9023	86.1148
26.3672	80.8639	26.3672	80.8785	26.3672	80.8398	26.3672	80.8917	26.3672	80.8153	26.3672	80.9283	26.3672	80.8166	26.3672	81.0276	26.3672	80.8851	26.3672	81.2367	26.3672	81.0711	26.3672	81.5977	26.3672	81.4198	26.3672	82.1317	26.3672	81.9538	26.3672	82.828	26.3672	82.6621	26.3672	83.6479	26.3672	83.503	26.3672	84.5381	26.3672	84.4192	26.3672	85.4442	26.3672	85.3522	26.3672	86.3185	26.3672	86.2517	26.3672	87.1221	26.3672	87.0767	26.3672	87.8233	26.3672	87.7948	26.3672	88.3966	26.3672	88.3801	26.3672	88.8213	26.3672	88.8128	26.3672	89.0822	26.3672	89.0787	26.3672	89.1693
27.832	83.6206	27.832	83.6197	27.832	83.626	27.832	83.6314	27.832	83.6413	27.832	83.6771	27.832	83.685	27.832	83.7887	27.832	83.7871	27.832	84.0036	27.832	83.9847	27.832	84.3543	27.832	84.3122	27.832	84.8564	27.832	84.7899	27.832	85.5011	27.832	85.4142	27.832	86.2563	27.832	86.157	27.832	87.0766	27.832	86.9735	27.832	87.9136	27.832	87.8144	27.832	88.7234	27.832	88.6333	27.832	89.4686	27.832	89.391	27.832	90.1188	27.832	90.0555	27.832	90.6492	27.832	90.6012	27.832	91.0402	27.832	91.0079	27.832	91.2774	27.832	91.2612	27.832	91.352
29.2969	86.6995	29.2969	86.6815	29.2969	86.7333	29.2969	86.6857	29.2969	86.7871	29.2969	86.7284	29.2969	86.8748	29.2969	86.8345	29.2969	87.0178	29.2969	87.033	29.2969	87.2413	29.2969	87.3496	29.2969	87.5678	29.2969	87.7979	29.2969	88.0098	29.2969	88.373	29.2969	88.5645	29.2969	89.0514	29.2969	89.2125	29.2969	89.7965	29.2969	89.9227	29.2969	90.5665	29.2969	90.6581	29.2969	91.3208	29.2969	91.3816	29.2969	92.0229	29.2969	92.0588	29.2969	92.6415	29.2969	92.6593	29.2969	93.1503	29.2969	93.1568	29.2969	93.5287	29.2969	93.5295	29.2969	93.7613	29.2969	93.7606	29.2969	93.8394
30.7617	89.9968	30.7617	90.0009	30.7617	90.013	30.7617	90.031	30.7617	90.0513	30.7617	90.1003	30.7617	90.1213	30.7617	90.2268	30.7617	90.2391	30.7617	90.4308	30.7617	90.4244	30.7617	90.7293	30.7617	90.6964	30.7617	91.1309	30.7617	91.0683	30.7617	91.6322	30.7617	91.5417	30.7617	92.2173	30.7617	92.1052	30.7617	92.8605	30.7617	92.7356	30.7617	93.5304	30.7617	93.4021	30.7617	94.1941	30.7617	94.0708	30.7617	94.8191	30.7617	94.7077	30.7617	95.3753	30.7617	95.281	30.7617	95.836	30.7617	95.7624	30.7617	96.1787	30.7617	96.1284	30.7617	96.3862	30.7617	96.3607	30.7617	96.448
32.2266	93.312	32.2266	93.3276	32.2266	93.3224	32.2266	93.3726	32.2266	93.361	32.2266	93.4557	32.2266	93.4353	32.2266	93.5897	32.2266	93.5573	32.2266	93.7887	32.2266	93.7413	32.2266	94.0652	32.2266	94.0009	32.2266	94.4266	32.2266	94.3449	32.2266	94.8718	32.2266	94.7741	32.2266	95.3901	32.2266	95.28	32.2266	95.9625	32.2266	95.8448	32.2266	96.5635	32.2266	96.4439	32.2266	97.1644	32.2266	97.0487	32.2266	97.7353	32.2266	97.6292	32.2266	98.247	32.2266	98.1557	32.2266	98.6732	32.2266	98.6009	32.2266	98.9911	32.2266	98.9411	32.2266	99.1838	32.2266	99.1583	32.2266	99.2406
33.6914	95.9277	33.6914	95.9389	33.6914	95.9431	33.6914	95.9796	33.6914	95.987	33.6914	96.0573	33.6914	96.0655	33.6914	96.1828	33.6914	96.1886	33.6914	96.3684	33.6914	96.3681	33.6914	96.6257	33.6914	96.6152	33.6914	96.9615	33.6914	96.9377	33.6914	97.376	33.6914	97.337	33.6914	97.8604	33.6914	97.8062	33.6914	98.3976	33.6914	98.3305	33.6914	98.9642	33.6914	98.8881	33.6914	99.5328	33.6914	99.453	33.6914	100.075	33.6914	99.9969	33.6914	100.561	33.6914	100.492	33.6914	100.968	33.6914	100.911	33.6914	101.272	33.6914	101.231	33.6914	101.456	33.6914	101.436	33.6914	101.512
35.1562	98.6546	35.1562	98.6753	35.1562	98.6636	35.1562	98.7281	35.1562	98.7034	35.1562	98.8182	35.1562	98.7783	35.1562	98.9533	35.1562	98.8953	35.1562	99.1419	35.1562	99.0629	35.1562	99.3913	35.1562	99.2893	35.1562	99.7058	35.1562	99.5805	35.1562	100.085	35.1562	99.9378	35.1562	100.52	35.1562	100.357	35.1562	100.999	35.1562	100.826	35.1562	101.503	35.1562	101.327	35.1562	102.009	35.1562	101.84	35.1562	102.492	35.1562	102.339	35.1562	102.927	35.1562	102.796	35.1562	103.291	35.1562	103.188	35.1562	103.562	35.1562	103.492	35.1562	103.725	35.1562	103.689	35.1562	103.768
36.6211	100.963	36.6211	100.985	36.6211	100.971	36.6211	101.041	36.6211	101.012	36.6211	101.133	36.6211	101.089	36.6211	101.268	36.6211	101.207	36.6211	101.451	36.6211	101.375	36.6211	101.688	36.6211	101.597	36.6211	101.982	36.6211	101.879	36.6211	102.333	36.6211	102.221	36.6211	102.734	36.6211	102.618	36.6211	103.176	36.6211	103.061	36.6211	103.643	36.6211	103.533	36.6211	104.114	36.6211	104.013	36.6211	104.567	36.6211	104.479	36.6211	104.979	36.6211	104.907	36.6211	105.327	36.6211	105.271	36.6211	105.59	36.6211	105.552	36.6211	105.751	36.6211	105.731	36.6211	105.799
38.0859	103.224	38.0859	103.242	38.0859	103.238	38.0859	103.293	38.0859	103.284	38.0859	103.379	38.0859	103.364	38.0859	103.505	38.0859	103.484	38.0859	103.674	38.0859	103.647	38.0859	103.893	38.0859	103.858	38.0859	104.162	38.0859	104.12	38.0859	104.482	38.0859	104.433	38.0859	104.848	38.0859	104.792	38.0859	105.25	38.0859	105.19	38.0859	105.676	38.0859	105.613	38.0859	106.108	38.0859	106.044	38.0859	106.525	38.0859	106.465	38.0859	106.905	38.0859	106.852	38.0859	107.227	38.0859	107.184	38.0859	107.471	38.0859	107.441	38.0859	107.621	38.0859	107.605	38.0859	107.667
39.5508	105.12	39.5508	105.141	39.5508	105.131	39.5508	105.194	39.5508	105.174	39.5508	105.281	39.5508	105.251	39.5508	105.405	39.5508	105.363	39.5508	105.567	39.5508	105.514	39.5508	105.772	39.5508	105.706	39.5508	106.019	39.5508	105.942	39.5508	106.307	39.5508	106.221	39.5508	106.633	39.5508	106.541	39.5508	106.99	39.5508	106.894	39.5508	107.366	39.5508	107.271	39.5508	107.748	39.5508	107.657	39.5508	108.118	39.5508	108.035	39.5508	108.457	39.5508	108.385	39.5508	108.744	39.5508	108.687	39.5508	108.962	39.5508	108.922	39.5508	109.095	39.5508	109.074	39.5508	109.133
41.0156	106.689	41.0156	106.71	41.0156	106.699	41.0156	106.762	41.0156	106.741	41.0156	106.847	41.0156	106.815	41.0156	106.966	41.0156	106.923	41.0156	107.12	41.0156	107.066	41.0156	107.311	41.0156	107.248	41.0156	107.539	41.0156	107.467	41.0156	107.803	41.0156	107.725	41.0156	108.099	41.0156	108.017	41.0156	108.423	41.0156	108.339	41.0156	108.763	41.0156	108.682	41.0156	109.109	41.0156	109.032	41.0156	109.445	41.0156	109.375	41.0156	109.754	41.0156	109.694	41.0156	110.017	41.0156	109.969	41.0156	110.217	41.0156	110.184	41.0156	110.34	41.0156	110.323	41.0156	110.376
42.4805	107.861	42.4805	107.88	42.4805	107.872	42.4805	107.93	42.4805	107.915	42.4805	108.011	42.4805	107.989	42.4805	108.125	42.4805	108.096	42.4805	108.271	42.4805	108.236	42.4805	108.45	42.4805	108.41	42.4805	108.662	42.4805	108.618	42.4805	108.906	42.4805	108.859	42.4805	109.18	42.4805	109.13	42.4805	109.476	42.4805	109.427	42.4805	109.789	42.4805	109.74	42.4805	110.107	42.4805	110.06	42.4805	110.417	42.4805	110.374	42.4805	110.702	42.4805	110.665	42.4805	110.947	42.4805	110.917	42.4805	111.134	42.4805	111.113	42.4805	111.25	42.4805	111.239	42.4805	111.286
43.9453	108.652	43.9453	108.67	43.9453	108.664	43.9453	108.719	43.9453	108.706	43.9453	108.798	43.9453	108.779	43.9453	108.907	43.9453	108.882	43.9453	109.047	43.9453	109.016	43.9453	109.216	43.9453	109.18	43.9453	109.415	43.9453	109.374	43.9453	109.643	43.9453	109.597	43.9453	109.895	43.9453	109.846	43.9453	110.168	43.9453	110.117	43.9453	110.455	43.9453	110.403	43.9453	110.746	43.9453	110.695	43.9453	111.03	43.9453	110.982	43.9453	111.292	43.9453	111.25	43.9453	111.516	43.9453	111.482	43.9453	111.688	43.9453	111.664	43.9453	111.794	43.9453	111.782	43.9453	111.827
45.4102	109.21	45.4102	109.228	45.4102	109.221	45.4102	109.277	45.4102	109.263	45.4102	109.355	45.4102	109.334	45.4102	109.463	45.4102	109.434	45.4102	109.599	45.4102	109.564	45.4102	109.763	45.4102	109.721	45.4102	109.953	45.4102	109.906	45.4102	110.167	45.4102	110.115	45.4102	110.403	45.4102	110.347	45.4102	110.655	45.4102	110.597	45.4102	110.919	45.4102	110.86	45.4102	111.185	45.4102	111.128	45.4102	111.444	45.4102	111.391	45.4102	111.683	45.4102	111.636	45.4102	111.887	45.4102	111.848	45.4102	112.043	45.4102	112.016	45.4102	112.139	45.4102	112.125	45.4102	112.167
46.875	109.578	46.875	109.596	46.875	109.589	46.875	109.643	46.875	109.629	46.875	109.719	46.875	109.699	46.875	109.823	46.875	109.796	46.875	109.953	46.875	109.92	46.875	110.108	46.875	110.069	46.875	110.285	46.875	110.242	46.875	110.484	46.875	110.437	46.875	110.701	46.875	110.651	46.875	110.932	46.875	110.88	46.875	111.171	46.875	111.119	46.875	111.412	46.875	111.362	46.875	111.646	46.875	111.599	46.875	111.862	46.875	111.821	46.875	112.047	46.875	112.013	46.875	112.188	46.875	112.164	46.875	112.275	46.875	112.263	46.875	112.301
48.3398	109.724	48.3398	109.746	48.3398	109.732	48.3398	109.798	48.3398	109.77	48.3398	109.879	48.3398	109.838	48.3398	109.987	48.3398	109.935	48.3398	110.119	48.3398	110.058	48.3398	110.274	48.3398	110.206	48.3398	110.448	48.3398	110.375	48.3398	110.64	48.3398	110.564	48.3398	110.845	48.3398	110.768	48.3398	111.061	48.3398	110.984	48.3398	111.282	48.3398	111.208	48.3398	111.503	48.3398	111.433	48.3398	111.715	48.3398	111.652	48.3398	111.91	48.3398	111.855	48.3398	112.076	48.3398	112.033	48.3398	112.203	48.3398	112.172	48.3398	112.28	48.3398	112.264	48.3398	112.301
51.2695	109.946	51.2695	109.963	51.2695	109.955	51.2695	110.005	51.2695	109.989	51.2695	110.07	51.2695	110.047	51.2695	110.157	51.2695	110.128	51.2695	110.263	51.2695	110.23	51.2695	110.386	51.2695	110.35	51.2695	110.524	51.2695	110.486	51.2695	110.674	51.2695	110.636	51.2695	110.833	51.2695	110.796	51.2695	110.998	51.2695	110.965	51.2695	111.167	51.2695	111.137	51.2695	111.336	51.2695	111.311	51.2695	111.499	51.2695	111.479	51.2695	111.649	51.2695	111.634	51.2695	111.779	51.2695	111.768	51.2695	111.88	51.2695	111.873	51.2695	111.944	51.2695	111.94	51.2695	111.965
52.7344	109.915	52.7344	109.927	52.7344	109.927	52.7344	109.964	52.7344	109.964	52.7344	110.024	52.7344	110.025	52.7344	110.105	52.7344	110.106	52.7344	110.206	52.7344	110.207	52.7344	110.322	52.7344	110.325	52.7344	110.452	52.7344	110.456	52.7344	110.592	52.7344	110.598	52.7344	110.741	52.7344	110.748	52.7344	110.895	52.7344	110.903	52.7344	111.051	52.7344	111.061	52.7344	111.207	52.7344	111.217	52.7344	111.356	52.7344	111.367	52.7344	111.494	52.7344	111.504	52.7344	111.614	52.7344	111.622	52.7344	111.707	52.7344	111.713	52.7344	111.767	52.7344	111.77	52.7344	111.789
54.1992	109.833	54.1992	109.851	54.1992	109.841	54.1992	109.892	54.1992	109.874	54.1992	109.957	54.1992	109.93	54.1992	110.042	54.1992	110.008	54.1992	110.145	54.1992	110.106	54.1992	110.262	54.1992	110.22	54.1992	110.391	54.1992	110.347	54.1992	110.528	54.1992	110.484	54.1992	110.67	54.1992	110.628	54.1992	110.815	54.1992	110.775	54.1992	110.96	54.1992	110.924	54.1992	111.102	54.1992	111.069	54.1992	111.236	54.1992	111.208	54.1992	111.358	54.1992	111.334	54.1992	111.462	54.1992	111.444	54.1992	111.542	54.1992	111.529	54.1992	111.591	54.1992	111.585	54.1992	111.606
55.6641	109.752	55.6641	109.765	55.6641	109.763	55.6641	109.802	55.6641	109.798	55.6641	109.861	55.6641	109.855	55.6641	109.939	55.6641	109.933	55.6641	110.035	55.6641	110.029	55.6641	110.145	55.6641	110.14	55.6641	110.266	55.6641	110.261	55.6641	110.394	55.6641	110.39	55.6641	110.527	55.6641	110.524	55.6641	110.661	55.6641	110.66	55.6641	110.794	55.6641	110.793	55.6641	110.923	55.6641	110.923	55.6641	111.045	55.6641	111.044	55.6641	111.155	55.6641	111.154	55.6641	111.249	55.6641	111.248	55.6641	111.321	55.6641	111.32	55.6641	111.366	55.6641	111.366	55.6641	111.382
58.5938	109.565	58.5938	109.58	58.5938	109.572	58.5938	109.616	58.5938	109.601	58.5938	109.673	58.5938	109.652	58.5938	109.747	58.5938	109.721	58.5938	109.835	58.5938	109.806	58.5938	109.934	58.5938	109.904	58.5938	110.041	58.5938	110.011	58.5938	110.152	58.5938	110.123	58.5938	110.263	58.5938	110.237	58.5938	110.373	58.5938	110.351	58.5938	110.478	58.5938	110.46	58.5938	110.577	58.5938	110.563	58.5938	110.668	58.5938	110.658	58.5938	110.749	58.5938	110.741	58.5938	110.816	58.5938	110.811	58.5938	110.868	58.5938	110.865	58.5938	110.9	58.5938	110.899	58.5938	110.911
60.0586	109.515	60.0586	109.525	60.0586	109.525	60.0586	109.556	60.0586	109.556	60.0586	109.606	60.0586	109.606	60.0586	109.672	60.0586	109.673	60.0586	109.751	60.0586	109.755	60.0586	109.84	60.0586	109.847	60.0586	109.935	60.0586	109.946	60.0586	110.032	60.0586	110.048	60.0586	110.128	60.0586	110.15	60.0586	110.221	60.0586	110.248	60.0586	110.309	60.0586	110.339	60.0586	110.39	60.0586	110.422	60.0586	110.464	60.0586	110.496	60.0586	110.529	60.0586	110.558	60.0586	110.584	60.0586	110.608	60.0586	110.626	60.0586	110.644	60.0586	110.655	60.0586	110.664	60.0586	110.668
62.9883	109.294	62.9883	109.298	62.9883	109.308	62.9883	109.321	62.9883	109.34	62.9883	109.359	62.9883	109.388	62.9883	109.413	62.9883	109.45	62.9883	109.478	62.9883	109.523	62.9883	109.551	62.9883	109.603	62.9883	109.629	62.9883	109.687	62.9883	109.708	62.9883	109.771	62.9883	109.785	62.9883	109.85	62.9883	109.857	62.9883	109.923	62.9883	109.922	62.9883	109.988	62.9883	109.979	62.9883	110.042	62.9883	110.028	62.9883	110.086	62.9883	110.07	62.9883	110.119	62.9883	110.104	62.9883	110.143	62.9883	110.13	62.9883	110.158	62.9883	110.149	62.9883	110.164	62.9883	110.161
64.4531	109.189	64.4531	109.195	64.4531	109.202	64.4531	109.219	64.4531	109.232	64.4531	109.259	64.4531	109.278	64.4531	109.313	64.4531	109.338	64.4531	109.378	64.4531	109.409	64.4531	109.451	64.4531	109.487	64.4531	109.528	64.4531	109.567	64.4531	109.605	64.4531	109.647	64.4531	109.677	64.4531	109.723	64.4531	109.744	64.4531	109.791	64.4531	109.802	64.4531	109.849	64.4531	109.851	64.4531	109.897	64.4531	109.891	64.4531	109.934	64.4531	109.923	64.4531	109.96	64.4531	109.948	64.4531	109.978	64.4531	109.967	64.4531	109.988	64.4531	109.98	64.4531	109.991	64.4531	109.988
67.3828	109.06	67.3828	109.063	67.3828	109.073	67.3828	109.084	67.3828	109.102	67.3828	109.119	67.3828	109.146	67.3828	109.168	67.3828	109.203	67.3828	109.227	67.3828	109.27	67.3828	109.292	67.3828	109.342	67.3828	109.359	67.3828	109.416	67.3828	109.425	67.3828	109.488	67.3828	109.486	67.3828	109.553	67.3828	109.539	67.3828	109.609	67.3828	109.582	67.3828	109.653	67.3828	109.615	67.3828	109.684	67.3828	109.638	67.3828	109.703	67.3828	109.654	67.3828	109.711	67.3828	109.665	67.3828	109.711	67.3828	109.674	67.3828	109.706	67.3828	109.682	67.3828	109.698	67.3828	109.69
68.8477	109.011	68.8477	109.013	68.8477	109.025	68.8477	109.031	68.8477	109.055	68.8477	109.063	68.8477	109.099	68.8477	109.108	68.8477	109.155	68.8477	109.162	68.8477	109.219	68.8477	109.222	68.8477	109.289	68.8477	109.284	68.8477	109.359	68.8477	109.344	68.8477	109.427	68.8477	109.399	68.8477	109.487	68.8477	109.445	68.8477	109.537	68.8477	109.481	68.8477	109.575	68.8477	109.507	68.8477	109.599	68.8477	109.524	68.8477	109.61	68.8477	109.534	68.8477	109.61	68.8477	109.54	68.8477	109.602	68.8477	109.546	68.8477	109.59	68.8477	109.553	68.8477	109.576	68.8477	109.563
71.7773	108.956	71.7773	108.95	71.7773	108.977	71.7773	108.957	71.7773	109.01	71.7773	108.977	71.7773	109.055	71.7773	109.008	71.7773	109.109	71.7773	109.047	71.7773	109.17	71.7773	109.091	71.7773	109.233	71.7773	109.136	71.7773	109.295	71.7773	109.179	71.7773	109.351	71.7773	109.217	71.7773	109.398	71.7773	109.246	71.7773	109.431	71.7773	109.266	71.7773	109.45	71.7773	109.276	71.7773	109.452	71.7773	109.277	71.7773	109.439	71.7773	109.274	71.7773	109.415	71.7773	109.271	71.7773	109.383	71.7773	109.27	71.7773	109.349	71.7773	109.277	71.7773	109.317	71.7773	109.292
74.707	108.989	74.707	108.985	74.707	109.004	74.707	108.991	74.707	109.029	74.707	109.006	74.707	109.064	74.707	109.03	74.707	109.105	74.707	109.059	74.707	109.151	74.707	109.09	74.707	109.199	74.707	109.121	74.707	109.244	74.707	109.148	74.707	109.282	74.707	109.168	74.707	109.311	74.707	109.178	74.707	109.325	74.707	109.176	74.707	109.324	74.707	109.164	74.707	109.306	74.707	109.144	74.707	109.274	74.707	109.119	74.707	109.232	74.707	109.094	74.707	109.185	74.707	109.076	74.707	109.14	74.707	109.07	74.707	109.103	74.707	109.079
77.6367	108.923	77.6367	108.923	77.6367	108.932	77.6367	108.933	77.6367	108.951	77.6367	108.952	77.6367	108.978	77.6367	108.978	77.6367	109.013	77.6367	109.009	77.6367	109.052	77.6367	109.041	77.6367	109.093	77.6367	109.072	77.6367	109.131	77.6367	109.097	77.6367	109.164	77.6367	109.112	77.6367	109.186	77.6367	109.115	77.6367	109.194	77.6367	109.105	77.6367	109.186	77.6367	109.081	77.6367	109.162	77.6367	109.047	77.6367	109.123	77.6367	109.006	77.6367	109.074	77.6367	108.967	77.6367	109.022	77.6367	108.935	77.6367	108.974	77.6367	108.917	77.6367	108.938	77.6367	108.918
79.1016	108.956	79.1016	108.96	79.1016	108.959	79.1016	108.973	79.1016	108.971	79.1016	108.993	79.1016	108.991	79.1016	109.018	79.1016	109.016	79.1016	109.047	79.1016	109.046	79.1016	109.076	79.1016	109.076	79.1016	109.101	79.1016	109.105	79.1016	109.119	79.1016	109.127	79.1016	109.126	79.1016	109.139	79.1016	109.118	79.1016	109.137	79.1016	109.095	79.1016	109.12	79.1016	109.057	79.1016	109.086	79.1016	109.008	79.1016	109.039	79.1016	108.953	79.1016	108.984	79.1016	108.898	79.1016	108.926	79.1016	108.854	79.1016	108.874	79.1016	108.826	79.1016	108.837	79.1016	108.82
82.0312	109.024	82.0312	109.031	82.0312	109.021	82.0312	109.042	82.0312	109.023	82.0312	109.057	82.0312	109.029	82.0312	109.073	82.0312	109.038	82.0312	109.087	82.0312	109.048	82.0312	109.098	82.0312	109.056	82.0312	109.101	82.0312	109.059	82.0312	109.092	82.0312	109.053	82.0312	109.068	82.0312	109.035	82.0312	109.026	82.0312	109.001	82.0312	108.965	82.0312	108.95	82.0312	108.886	82.0312	108.882	82.0312	108.795	82.0312	108.801	82.0312	108.699	82.0312	108.712	82.0312	108.608	82.0312	108.624	82.0312	108.533	82.0312	108.548	82.0312	108.486	82.0312	108.495	82.0312	108.473
84.9609	108.578	84.9609	108.546	84.9609	108.62	84.9609	108.523	84.9609	108.67	84.9609	108.511	84.9609	108.726	84.9609	108.508	84.9609	108.787	84.9609	108.513	84.9609	108.848	84.9609	108.524	84.9609	108.908	84.9609	108.538	84.9609	108.961	84.9609	108.549	84.9609	109.004	84.9609	108.555	84.9609	109.032	84.9609	108.552	84.9609	109.041	84.9609	108.538	84.9609	109.028	84.9609	108.515	84.9609	108.991	84.9609	108.486	84.9609	108.932	84.9609	108.457	84.9609	108.853	84.9609	108.438	84.9609	108.761	84.9609	108.436	84.9609	108.665	84.9609	108.457	84.9609	108.577	84.9609	108.505
87.8906	108.551	87.8906	108.544	87.8906	108.573	87.8906	108.553	87.8906	108.611	87.8906	108.578	87.8906	108.663	87.8906	108.617	87.8906	108.726	87.8906	108.668	87.8906	108.798	87.8906	108.727	87.8906	108.875	87.8906	108.791	87.8906	108.952	87.8906	108.856	87.8906	109.023	87.8906	108.915	87.8906	109.085	87.8906	108.966	87.8906	109.133	87.8906	109.004	87.8906	109.163	87.8906	109.029	87.8906	109.175	87.8906	109.041	87.8906	109.169	87.8906	109.042	87.8906	109.15	87.8906	109.038	87.8906	109.121	87.8906	109.034	87.8906	109.091	87.8906	109.035	87.8906	109.064	87.8906	109.044
90.8203	108.491	90.8203	108.49	90.8203	108.504	90.8203	108.499	90.8203	108.528	90.8203	108.519	90.8203	108.564	90.8203	108.547	90.8203	108.609	90.8203	108.582	90.8203	108.663	90.8203	108.622	90.8203	108.722	90.8203	108.665	90.8203	108.781	90.8203	108.706	90.8203	108.838	90.8203	108.743	90.8203	108.886	90.8203	108.772	90.8203	108.921	90.8203	108.792	90.8203	108.941	90.8203	108.803	90.8203	108.945	90.8203	108.804	90.8203	108.934	90.8203	108.8	90.8203	108.911	90.8203	108.794	90.8203	108.881	90.8203	108.789	90.8203	108.849	90.8203	108.791	90.8203	108.822	90.8203	108.802
95.2148	108.818	95.2148	108.809	95.2148	108.827	95.2148	108.8	95.2148	108.835	95.2148	108.792	95.2148	108.844	95.2148	108.783	95.2148	108.853	95.2148	108.773	95.2148	108.862	95.2148	108.76	95.2148	108.871	95.2148	108.74	95.2148	108.877	95.2148	108.711	95.2148	108.877	95.2148	108.67	95.2148	108.867	95.2148	108.615	95.2148	108.84	95.2148	108.546	95.2148	108.795	95.2148	108.466	95.2148	108.727	95.2148	108.38	95.2148	108.639	95.2148	108.295	95.2148	108.536	95.2148	108.223	95.2148	108.426	95.2148	108.174	95.2148	108.321	95.2148	108.157	95.2148	108.234	95.2148	108.178
98.1445	109.144	98.1445	109.146	98.1445	109.127	98.1445	109.138	98.1445	109.096	98.1445	109.12	98.1445	109.051	98.1445	109.094	98.1445	108.994	98.1445	109.064	98.1445	108.924	98.1445	109.029	98.1445	108.845	98.1445	108.987	98.1445	108.758	98.1445	108.936	98.1445	108.663	98.1445	108.872	98.1445	108.56	98.1445	108.79	98.1445	108.45	98.1445	108.686	98.1445	108.334	98.1445	108.561	98.1445	108.213	98.1445	108.416	98.1445	108.091	98.1445	108.26	98.1445	107.976	98.1445	108.104	98.1445	107.876	98.1445	107.964	98.1445	107.805	98.1445	107.855	98.1445	107.774	98.1445	107.79
101.074	109.149	101.074	109.146	101.074	109.147	101.074	109.137	101.074	109.14	101.074	109.124	101.074	109.127	101.074	109.108	101.074	109.107	101.074	109.088	101.074	109.079	101.074	109.064	101.074	109.039	101.074	109.034	101.074	108.985	101.074	108.996	101.074	108.911	101.074	108.943	101.074	108.816	101.074	108.871	101.074	108.696	101.074	108.775	101.074	108.552	101.074	108.652	101.074	108.39	101.074	108.503	101.074	108.219	101.074	108.335	101.074	108.052	101.074	108.161	101.074	107.909	101.074	107.997	101.074	107.807	101.074	107.865	101.074	107.763	101.074	107.783
105.469	109.103	105.469	109.125	105.469	109.069	105.469	109.132	105.469	109.025	105.469	109.125	105.469	108.976	105.469	109.103	105.469	108.928	105.469	109.068	105.469	108.886	105.469	109.02	105.469	108.854	105.469	108.959	105.469	108.833	105.469	108.885	105.469	108.82	105.469	108.799	105.469	108.809	105.469	108.699	105.469	108.791	105.469	108.589	105.469	108.757	105.469	108.472	105.469	108.703	105.469	108.355	105.469	108.625	105.469	108.248	105.469	108.527	105.469	108.163	105.469	108.416	105.469	108.111	105.469	108.303	105.469	108.1	105.469	108.204	105.469	108.133
108.398	109.381	108.398	109.36	108.398	109.385	108.398	109.323	108.398	109.37	108.398	109.274	108.398	109.336	108.398	109.216	108.398	109.285	108.398	109.152	108.398	109.221	108.398	109.083	108.398	109.148	108.398	109.008	108.398	109.07	108.398	108.926	108.398	108.99	108.398	108.834	108.398	108.909	108.398	108.731	108.398	108.826	108.398	108.616	108.398	108.737	108.398	108.491	108.398	108.641	108.398	108.364	108.398	108.536	108.398	108.244	108.398	108.423	108.398	108.143	108.398	108.308	108.398	108.073	108.398	108.201	108.398	108.044	108.398	108.113	108.398	108.058
112.793	109.434	112.793	109.419	112.793	109.431	112.793	109.388	112.793	109.41	112.793	109.341	112.793	109.372	112.793	109.281	112.793	109.317	112.793	109.209	112.793	109.246	112.793	109.128	112.793	109.16	112.793	109.04	112.793	109.061	112.793	108.946	112.793	108.948	112.793	108.846	112.793	108.823	112.793	108.741	112.793	108.684	112.793	108.628	112.793	108.536	112.793	108.508	112.793	108.381	112.793	108.381	112.793	108.227	112.793	108.251	112.793	108.085	112.793	108.122	112.793	107.966	112.793	108.006	112.793	107.884	112.793	107.914	112.793	107.847	112.793	107.858
117.188	109.83	117.188	109.782	117.188	109.867	117.188	109.722	117.188	109.891	117.188	109.652	117.188	109.903	117.188	109.573	117.188	109.903	117.188	109.485	117.188	109.891	117.188	109.39	117.188	109.866	117.188	109.287	117.188	109.827	117.188	109.177	117.188	109.772	117.188	109.06	117.188	109.697	117.188	108.936	117.188	109.599	117.188	108.808	117.188	109.474	117.188	108.678	117.188	109.323	117.188	108.553	117.188	109.149	117.188	108.441	117.188	108.959	117.188	108.354	117.188	108.767	117.188	108.302	117.188	108.59	117.188	108.296	117.188	108.444	117.188	108.344
120.117	110.081	120.117	110.064	120.117	110.085	120.117	110.034	120.117	110.077	120.117	109.989	120.117	110.059	120.117	109.931	120.117	110.033	120.117	109.859	120.117	110	120.117	109.775	120.117	109.962	120.117	109.678	120.117	109.917	120.117	109.568	120.117	109.863	120.117	109.445	120.117	109.798	120.117	109.311	120.117	109.717	120.117	109.169	120.117	109.616	120.117	109.024	120.117	109.493	120.117	108.884	120.117	109.349	120.117	108.761	120.117	109.189	120.117	108.665	120.117	109.024	120.117	108.609	120.117	108.868	120.117	108.6	120.117	108.737	120.117	108.644
124.512	110.168	124.512	110.156	124.512	110.164	124.512	110.131	124.512	110.147	124.512	110.092	124.512	110.116	124.512	110.041	124.512	110.074	124.512	109.978	124.512	110.022	124.512	109.905	124.512	109.961	124.512	109.819	124.512	109.892	124.512	109.721	124.512	109.813	124.512	109.608	124.512	109.722	124.512	109.481	124.512	109.618	124.512	109.341	124.512	109.498	124.512	109.194	124.512	109.364	124.512	109.045	124.512	109.218	124.512	108.906	124.512	109.069	124.512	108.787	124.512	108.926	124.512	108.701	124.512	108.802	124.512	108.657	124.512	108.71	124.512	108.66
128.906	109.934	128.906	109.909	128.906	109.943	128.906	109.869	128.906	109.933	128.906	109.816	128.906	109.906	128.906	109.752	128.906	109.861	128.906	109.677	128.906	109.8	128.906	109.592	128.906	109.723	128.906	109.496	128.906	109.631	128.906	109.385	128.906	109.523	128.906	109.257	128.906	109.399	128.906	109.112	128.906	109.258	128.906	108.95	128.906	109.102	128.906	108.777	128.906	108.931	128.906	108.6	128.906	108.752	128.906	108.431	128.906	108.574	128.906	108.286	128.906	108.407	128.906	108.177	128.906	108.267	128.906	108.118	128.906	108.165	128.906	108.114
133.301	109.431	133.301	109.432	133.301	109.426	133.301	109.427	133.301	109.415	133.301	109.418	133.301	109.4	133.301	109.404	133.301	109.379	133.301	109.383	133.301	109.353	133.301	109.352	133.301	109.32	133.301	109.306	133.301	109.279	133.301	109.239	133.301	109.228	133.301	109.144	133.301	109.166	133.301	109.021	133.301	109.091	133.301	108.874	133.301	109.003	133.301	108.712	133.301	108.901	133.301	108.549	133.301	108.789	133.301	108.405	133.301	108.669	133.301	108.295	133.301	108.546	133.301	108.231	133.301	108.429	133.301	108.218	133.301	108.327	133.301	108.253
139.16	109.275	139.16	109.28	139.16	109.245	139.16	109.261	139.16	109.194	139.16	109.221	139.16	109.127	139.16	109.167	139.16	109.053	139.16	109.105	139.16	108.977	139.16	109.043	139.16	108.905	139.16	108.984	139.16	108.839	139.16	108.928	139.16	108.777	139.16	108.871	139.16	108.715	139.16	108.806	139.16	108.649	139.16	108.726	139.16	108.574	139.16	108.629	139.16	108.492	139.16	108.517	139.16	108.404	139.16	108.401	139.16	108.316	139.16	108.291	139.16	108.236	139.16	108.202	139.16	108.171	139.16	108.143	139.16	108.13	139.16	108.119
143.555	109.59	143.555	109.581	143.555	109.565	143.555	109.541	143.555	109.511	143.555	109.472	143.555	109.429	143.555	109.378	143.555	109.326	143.555	109.266	143.555	109.208	143.555	109.146	143.555	109.078	143.555	109.023	143.555	108.943	143.555	108.904	143.555	108.806	143.555	108.79	143.555	108.666	143.555	108.679	143.555	108.527	143.555	108.565	143.555	108.387	143.555	108.444	143.555	108.251	143.555	108.315	143.555	108.121	143.555	108.182	143.555	108.004	143.555	108.054	143.555	107.908	143.555	107.943	143.555	107.841	143.555	107.861	143.555	107.808	143.555	107.814
147.949	109.546	147.949	109.541	147.949	109.521	147.949	109.505	147.949	109.468	147.949	109.438	147.949	109.391	147.949	109.345	147.949	109.295	147.949	109.229	147.949	109.187	147.949	109.095	147.949	109.069	147.949	108.951	147.949	108.947	147.949	108.803	147.949	108.821	147.949	108.655	147.949	108.691	147.949	108.511	147.949	108.558	147.949	108.373	147.949	108.423	147.949	108.24	147.949	108.288	147.949	108.114	147.949	108.158	147.949	107.999	147.949	108.04	147.949	107.902	147.949	107.938	147.949	107.83	147.949	107.858	147.949	107.788	147.949	107.804	147.949	107.78
153.809	109.492	153.809	109.494	153.809	109.457	153.809	109.464	153.809	109.389	153.809	109.406	153.809	109.291	153.809	109.325	153.809	109.168	153.809	109.225	153.809	109.025	153.809	109.11	153.809	108.868	153.809	108.982	153.809	108.7	153.809	108.842	153.809	108.523	153.809	108.691	153.809	108.338	153.809	108.53	153.809	108.144	153.809	108.358	153.809	107.947	153.809	108.177	153.809	107.751	153.809	107.991	153.809	107.568	153.809	107.804	153.809	107.411	153.809	107.626	153.809	107.293	153.809	107.466	153.809	107.224	153.809	107.337	153.809	107.209	153.809	107.249
159.668	109.572	159.668	109.584	159.668	109.52	159.668	109.556	159.668	109.433	159.668	109.491	159.668	109.319	159.668	109.395	159.668	109.191	159.668	109.275	159.668	109.06	159.668	109.137	159.668	108.935	159.668	108.986	159.668	108.819	159.668	108.824	159.668	108.708	159.668	108.653	159.668	108.591	159.668	108.478	159.668	108.46	159.668	108.303	159.668	108.309	159.668	108.134	159.668	108.14	159.668	107.979	159.668	107.963	159.668	107.841	159.668	107.797	159.668	107.723	159.668	107.66	159.668	107.627	159.668	107.566	159.668	107.557	159.668	107.519	159.668	107.519
165.527	109.065	165.527	109.105	165.527	108.989	165.527	109.109	165.527	108.878	165.527	109.079	165.527	108.741	165.527	109.023	165.527	108.588	165.527	108.947	165.527	108.431	165.527	108.858	165.527	108.284	165.527	108.759	165.527	108.156	165.527	108.65	165.527	108.053	165.527	108.529	165.527	107.971	165.527	108.392	165.527	107.9	165.527	108.24	165.527	107.826	165.527	108.077	165.527	107.742	165.527	107.912	165.527	107.647	165.527	107.756	165.527	107.548	165.527	107.619	165.527	107.461	165.527	107.508	165.527	107.399	165.527	107.428	165.527	107.372	165.527	107.382
171.387	108.989	171.387	108.905	171.387	109.041	171.387	108.802	171.387	109.049	171.387	108.698	171.387	109.008	171.387	108.61	171.387	108.919	171.387	108.552	171.387	108.79	171.387	108.529	171.387	108.636	171.387	108.543	171.387	108.473	171.387	108.583	171.387	108.316	171.387	108.633	171.387	108.176	171.387	108.674	171.387	108.055	171.387	108.688	171.387	107.948	171.387	108.661	171.387	107.85	171.387	108.586	171.387	107.759	171.387	108.465	171.387	107.683	171.387	108.306	171.387	107.635	171.387	108.127	171.387	107.632	171.387	107.949	171.387	107.685	171.387	107.795
177.246	109.391	177.246	109.309	177.246	109.404	177.246	109.156	177.246	109.35	177.246	108.941	177.246	109.241	177.246	108.677	177.246	109.089	177.246	108.385	177.246	108.911	177.246	108.093	177.246	108.729	177.246	107.828	177.246	108.559	177.246	107.614	177.246	108.42	177.246	107.464	177.246	108.32	177.246	107.378	177.246	108.259	177.246	107.349	177.246	108.229	177.246	107.366	177.246	108.219	177.246	107.421	177.246	108.213	177.246	107.507	177.246	108.201	177.246	107.616	177.246	108.172	177.246	107.736	177.246	108.125	177.246	107.856	177.246	108.055	177.246	107.965
183.105	108.56	183.105	108.619	183.105	108.446	183.105	108.623	183.105	108.275	183.105	108.578	183.105	108.053	183.105	108.491	183.105	107.788	183.105	108.369	183.105	107.493	183.105	108.222	183.105	107.189	183.105	108.06	183.105	106.898	183.105	107.892	183.105	106.645	183.105	107.724	183.105	106.45	183.105	107.561	183.105	106.323	183.105	107.401	183.105	106.262	183.105	107.24	183.105	106.25	183.105	107.074	183.105	106.267	183.105	106.905	183.105	106.294	183.105	106.741	183.105	106.318	183.105	106.595	183.105	106.338	183.105	106.482	183.105	106.363	183.105	106.406
188.965	108.908	188.965	108.834	188.965	108.901	188.965	108.682	188.965	108.812	188.965	108.462	188.965	108.647	188.965	108.191	188.965	108.418	188.965	107.893	188.965	108.14	188.965	107.596	188.965	107.836	188.965	107.336	188.965	107.534	188.965	107.142	188.965	107.264	188.965	107.037	188.965	107.058	188.965	107.022	188.965	106.937	188.965	107.084	188.965	106.906	188.965	107.193	188.965	106.957	188.965	107.318	188.965	107.066	188.965	107.434	188.965	107.205	188.965	107.524	188.965	107.346	188.965	107.583	188.965	107.465	188.965	107.607	188.965	107.551	188.965	107.598
196.289	109.96	196.289	109.887	196.289	109.946	196.289	109.733	196.289	109.843	196.289	109.508	196.289	109.652	196.289	109.225	196.289	109.378	196.289	108.9	196.289	109.031	196.289	108.554	196.289	108.629	196.289	108.209	196.289	108.199	196.289	107.892	196.289	107.778	196.289	107.629	196.289	107.411	196.289	107.444	196.289	107.139	196.289	107.352	196.289	106.988	196.289	107.35	196.289	106.957	196.289	107.416	196.289	107.022	196.289	107.515	196.289	107.147	196.289	107.611	196.289	107.297	196.289	107.675	196.289	107.444	196.289	107.691	196.289	107.568	196.289	107.654
203.613	109.832	203.613	109.758	203.613	109.825	203.613	109.604	203.613	109.74	203.613	109.37	203.613	109.58	203.613	109.066	203.613	109.352	203.613	108.704	203.613	109.059	203.613	108.303	203.613	108.708	203.613	107.889	203.613	108.312	203.613	107.495	203.613	107.893	203.613	107.158	203.613	107.49	203.613	106.914	203.613	107.151	203.613	106.79	203.613	106.93	203.613	106.79	203.613	106.856	203.613	106.896	203.613	106.921	203.613	107.068	203.613	107.077	203.613	107.26	203.613	107.266	203.613	107.429	203.613	107.434	203.613	107.543	203.613	107.546	203.613	107.584
210.938	109.898	210.938	109.823	210.938	109.896	210.938	109.671	210.938	109.818	210.938	109.441	210.938	109.663	210.938	109.136	210.938	109.434	210.938	108.76	210.938	109.13	210.938	108.323	210.938	108.757	210.938	107.845	210.938	108.321	210.938	107.354	210.938	107.84	210.938	106.892	210.938	107.339	210.938	106.512	210.938	106.863	210.938	106.259	210.938	106.469	210.938	106.158	210.938	106.215	210.938	106.196	210.938	106.131	210.938	106.329	210.938	106.198	210.938	106.497	210.938	106.358	210.938	106.648	210.938	106.539	210.938	106.741	210.938	106.683	210.938	106.755
218.262	109.849	218.262	109.796	218.262	109.831	218.262	109.673	218.262	109.744	218.262	109.481	218.262	109.59	218.262	109.222	218.262	109.369	218.262	108.897	218.262	109.086	218.262	108.509	218.262	108.745	218.262	108.063	218.262	108.354	218.262	107.571	218.262	107.928	218.262	107.06	218.262	107.49	218.262	106.574	218.262	107.077	218.262	106.179	218.262	106.735	218.262	105.941	218.262	106.505	218.262	105.893	218.262	106.41	218.262	106.01	218.262	106.437	218.262	106.221	218.262	106.537	218.262	106.446	218.262	106.65	218.262	106.623	218.262	106.723	218.262	106.718
225.586	110.036	225.586	110.017	225.586	109.977	225.586	109.921	225.586	109.843	225.586	109.747	225.586	109.638	225.586	109.5	225.586	109.365	225.586	109.188	225.586	109.027	225.586	108.818	225.586	108.63	225.586	108.403	225.586	108.182	225.586	107.957	225.586	107.702	225.586	107.499	225.586	107.22	225.586	107.053	225.586	106.783	225.586	106.659	225.586	106.445	225.586	106.362	225.586	106.252	225.586	106.202	225.586	106.217	225.586	106.19	225.586	106.31	225.586	106.298	225.586	106.467	225.586	106.463	225.586	106.618	225.586	106.618	225.586	106.709	225.586	106.709
232.91	110.018	232.91	109.988	232.91	109.969	232.91	109.879	232.91	109.841	232.91	109.694	232.91	109.634	232.91	109.437	232.91	109.351	232.91	109.113	232.91	108.99	232.91	108.73	232.91	108.553	232.91	108.299	232.91	108.046	232.91	107.837	232.91	107.483	232.91	107.37	232.91	106.897	232.91	106.932	232.91	106.344	232.91	106.571	232.91	105.9	232.91	106.332	232.91	105.644	232.91	106.243	232.91	105.611	232.91	106.289	232.91	105.771	232.91	106.418	232.91	106.038	232.91	106.56	232.91	106.316	232.91	106.651	232.91	106.532	232.91	106.647
241.699	109.781	241.699	109.722	241.699	109.767	241.699	109.591	241.699	109.68	241.699	109.392	241.699	109.52	241.699	109.128	241.699	109.289	241.699	108.803	241.699	108.989	241.699	108.425	241.699	108.621	241.699	108.002	241.699	108.187	241.699	107.551	241.699	107.689	241.699	107.092	241.699	107.14	241.699	106.658	241.699	106.567	241.699	106.289	241.699	106.028	241.699	106.029	241.699	105.611	241.699	105.907	241.699	105.398	241.699	105.92	241.699	105.418	241.699	106.026	241.699	105.614	241.699	106.157	241.699	105.876	241.699	106.243	241.699	106.103	241.699	106.231
250.488	109.894	250.488	109.836	250.488	109.874	250.488	109.7	250.488	109.771	250.488	109.487	250.488	109.583	250.488	109.197	250.488	109.307	250.488	108.833	250.488	108.941	250.488	108.399	250.488	108.492	250.488	107.907	250.488	107.972	250.488	107.376	250.488	107.403	250.488	106.834	250.488	106.814	250.488	106.317	250.488	106.243	250.488	105.871	250.488	105.74	250.488	105.542	250.488	105.365	250.488	105.367	250.488	105.173	250.488	105.35	250.488	105.175	250.488	105.452	250.488	105.322	250.488	105.602	250.488	105.522	250.488	105.723	250.488	105.688	250.488	105.76
259.277	109.977	259.277	109.913	259.277	109.97	259.277	109.783	259.277	109.889	259.277	109.59	259.277	109.729	259.277	109.337	259.277	109.486	259.277	109.025	259.277	109.158	259.277	108.653	259.277	108.744	259.277	108.225	259.277	108.251	259.277	107.751	259.277	107.694	259.277	107.258	259.277	107.101	259.277	106.787	259.277	106.511	259.277	106.393	259.277	105.984	259.277	106.117	259.277	105.586	259.277	105.977	259.277	105.381	259.277	105.953	259.277	105.382	259.277	106.002	259.277	105.541	259.277	106.072	259.277	105.763	259.277	106.112	259.277	105.961	259.277	106.081
268.066	109.553	268.066	109.421	268.066	109.596	268.066	109.206	268.066	109.551	268.066	108.914	268.066	109.418	268.066	108.555	268.066	109.198	268.066	108.143	268.066	108.889	268.066	107.689	268.066	108.487	268.066	107.206	268.066	107.991	268.066	106.712	268.066	107.409	268.066	106.24	268.066	106.764	268.066	105.845	268.066	106.102	268.066	105.591	268.066	105.495	268.066	105.515	268.066	105.043	268.066	105.599	268.066	104.835	268.066	105.774	268.066	104.897	268.066	105.956	268.066	105.157	268.066	106.081	268.066	105.496	268.066	106.108	268.066	105.804	268.066	106.016
276.855	109.726	276.855	109.659	276.855	109.72	276.855	109.511	276.855	109.644	276.855	109.276	276.855	109.499	276.855	108.949	276.855	109.275	276.855	108.527	276.855	108.965	276.855	108.011	276.855	108.561	276.855	107.399	276.855	108.067	276.855	106.694	276.855	107.5	276.855	105.919	276.855	106.899	276.855	105.134	276.855	106.321	276.855	104.468	276.855	105.828	276.855	104.089	276.855	105.476	276.855	104.096	276.855	105.298	276.855	104.418	276.855	105.29	276.855	104.869	276.855	105.408	276.855	105.287	276.855	105.573	276.855	105.578	276.855	105.697	276.855	105.712
287.109	109.679	287.109	109.623	287.109	109.648	287.109	109.48	287.109	109.532	287.109	109.254	287.109	109.339	287.109	108.951	287.109	109.081	287.109	108.576	287.109	108.765	287.109	108.128	287.109	108.385	287.109	107.601	287.109	107.922	287.109	106.987	287.109	107.351	287.109	106.303	287.109	106.668	287.109	105.614	287.109	105.915	287.109	105.046	287.109	105.205	287.109	104.744	287.109	104.698	287.109	104.765	287.109	104.519	287.109	105.031	287.109	104.663	287.109	105.391	287.109	105.008	287.109	105.707	287.109	105.401	287.109	105.89	287.109	105.723	287.109	105.897
297.363	109.986	297.363	109.888	297.363	109.992	297.363	109.714	297.363	109.885	297.363	109.472	297.363	109.651	297.363	109.165	297.363	109.288	297.363	108.794	297.363	108.816	297.363	108.361	297.363	108.264	297.363	107.861	297.363	107.649	297.363	107.283	297.363	106.956	297.363	106.612	297.363	106.158	297.363	105.857	297.363	105.265	297.363	105.115	297.363	104.396	297.363	104.59	297.363	103.793	297.363	104.49	297.363	103.67	297.363	104.803	297.363	104.008	297.363	105.293	297.363	104.583	297.363	105.713	297.363	105.17	297.363	105.93	297.363	105.634	297.363	105.901
307.617	110.004	307.617	109.922	307.617	110.013	307.617	109.756	307.617	109.95	307.617	109.491	307.617	109.806	307.617	109.119	307.617	109.561	307.617	108.645	307.617	109.205	307.617	108.082	307.617	108.744	307.617	107.454	307.617	108.199	307.617	106.78	307.617	107.584	307.617	106.067	307.617	106.893	307.617	105.325	307.617	106.108	307.617	104.607	307.617	105.262	307.617	104.066	307.617	104.505	307.617	103.916	307.617	104.095	307.617	104.232	307.617	104.19	307.617	104.824	307.617	104.665	307.617	105.409	307.617	105.236	307.617	105.789	307.617	105.682	307.617	105.882
319.336	109.588	319.336	109.508	319.336	109.601	319.336	109.37	319.336	109.536	319.336	109.171	319.336	109.386	319.336	108.9	319.336	109.146	319.336	108.533	319.336	108.811	319.336	108.038	319.336	108.373	319.336	107.395	319.336	107.826	319.336	106.608	319.336	107.171	319.336	105.722	319.336	106.429	319.336	104.836	319.336	105.64	319.336	104.094	319.336	104.876	319.336	103.656	319.336	104.264	319.336	103.628	319.336	103.977	319.336	103.995	319.336	104.13	319.336	104.603	319.336	104.63	319.336	105.231	319.336	105.226	319.336	105.684	319.336	105.678	319.336	105.846
329.59	109.476	329.59	109.406	329.59	109.482	329.59	109.278	329.59	109.415	329.59	109.096	329.59	109.273	329.59	108.86	329.59	109.063	329.59	108.563	329.59	108.786	329.59	108.188	329.59	108.43	329.59	107.7	329.59	107.961	329.59	107.056	329.59	107.335	329.59	106.225	329.59	106.523	329.59	105.231	329.59	105.538	329.59	104.211	329.59	104.477	329.59	103.449	329.59	103.556	329.59	103.239	329.59	103.065	329.59	103.591	329.59	103.152	329.59	104.205	329.59	103.66	329.59	104.765	329.59	104.294	329.59	105.087	329.59	104.82	329.59	105.104
341.309	109.227	341.309	109.189	341.309	109.143	341.309	109.034	341.309	108.941	341.309	108.774	341.309	108.64	341.309	108.423	341.309	108.276	341.309	107.991	341.309	107.89	341.309	107.478	341.309	107.502	341.309	106.883	341.309	107.098	341.309	106.195	341.309	106.635	341.309	105.417	341.309	106.079	341.309	104.58	341.309	105.446	341.309	103.801	341.309	104.827	341.309	103.297	341.309	104.374	341.309	103.285	341.309	104.227	341.309	103.756	341.309	104.409	341.309	104.459	341.309	104.809	341.309	105.116	341.309	105.257	341.309	105.557	341.309	105.596	341.309	105.716
353.027	109.584	353.027	109.547	353.027	109.53	353.027	109.413	353.027	109.387	353.027	109.181	353.027	109.156	353.027	108.851	353.027	108.84	353.027	108.429	353.027	108.438	353.027	107.914	353.027	107.933	353.027	107.286	353.027	107.282	353.027	106.516	353.027	106.414	353.027	105.572	353.027	105.265	353.027	104.467	353.027	103.84	353.027	103.334	353.027	102.356	353.027	102.515	353.027	101.392	353.027	102.415	353.027	101.516	353.027	103.031	353.027	102.47	353.027	103.933	353.027	103.593	353.027	104.726	353.027	104.514	353.027	105.219	353.027	105.112	353.027	105.351
366.211	109.761	366.211	109.631	366.211	109.78	366.211	109.398	366.211	109.683	366.211	109.073	366.211	109.474	366.211	108.666	366.211	109.162	366.211	108.177	366.211	108.759	366.211	107.592	366.211	108.268	366.211	106.879	366.211	107.665	366.211	105.991	366.211	106.895	366.211	104.882	366.211	105.874	366.211	103.56	366.211	104.51	366.211	102.192	366.211	102.768	366.211	101.261	366.211	100.865	366.211	101.32	366.211	99.6719	366.211	102.225	366.211	100.144	366.211	103.322	366.211	101.622	366.211	104.169	366.211	103.053	366.211	104.602	366.211	104.057	366.211	104.571
379.395	109.661	379.395	109.581	379.395	109.674	379.395	109.446	379.395	109.621	379.395	109.268	379.395	109.514	379.395	109.049	379.395	109.364	379.395	108.776	379.395	109.168	379.395	108.419	379.395	108.894	379.395	107.933	379.395	108.488	379.395	107.256	379.395	107.886	379.395	106.303	379.395	107.03	379.395	104.981	379.395	105.871	379.395	103.252	379.395	104.382	379.395	101.342	379.395	102.626	379.395	100.151	379.395	100.958	379.395	100.578	379.395	100.218	379.395	101.888	379.395	100.853	379.395	103.042	379.395	102.095	379.395	103.669	379.395	103.147	379.395	103.7
392.578	109.002	392.578	108.921	392.578	108.981	392.578	108.74	392.578	108.872	392.578	108.487	392.578	108.691	392.578	108.212	392.578	108.454	392.578	107.962	392.578	108.17	392.578	107.744	392.578	107.845	392.578	107.51	392.578	107.47	392.578	107.168	392.578	107.009	392.578	106.601	392.578	106.386	392.578	105.689	392.578	105.505	392.578	104.346	392.578	104.293	392.578	102.618	392.578	102.783	392.578	100.939	392.578	101.292	392.578	100.287	392.578	100.536	392.578	100.997	392.578	100.938	392.578	102.129	392.578	101.928	392.578	102.928	392.578	102.781	392.578	103.151
405.762	109.425	405.762	109.292	405.762	109.361	405.762	108.962	405.762	109.123	405.762	108.467	405.762	108.747	405.762	107.873	405.762	108.281	405.762	107.255	405.762	107.771	405.762	106.672	405.762	107.26	405.762	106.139	405.762	106.786	405.762	105.642	405.762	106.37	405.762	105.15	405.762	105.984	405.762	104.607	405.762	105.52	405.762	103.936	405.762	104.834	405.762	103.107	405.762	103.852	405.762	102.252	405.762	102.705	405.762	101.727	405.762	101.815	405.762	101.795	405.762	101.595	405.762	102.222	405.762	101.929	405.762	102.579	405.762	102.378	405.762	102.636
420.41	110.297	420.41	110.245	420.41	110.217	420.41	110.042	420.41	110.024	420.41	109.674	420.41	109.73	420.41	109.147	420.41	109.346	420.41	108.494	420.41	108.875	420.41	107.768	420.41	108.31	420.41	107.011	420.41	107.643	420.41	106.22	420.41	106.872	420.41	105.359	420.41	106.005	420.41	104.411	420.41	105.044	420.41	103.441	420.41	103.972	420.41	102.63	420.41	102.801	420.41	102.21	420.41	101.726	420.41	102.274	420.41	101.201	420.41	102.668	420.41	101.507	420.41	103.121	420.41	102.279	420.41	103.407	420.41	102.993	420.41	103.384
435.059	110.274	435.059	110.178	435.059	110.254	435.059	109.984	435.059	110.106	435.059	109.701	435.059	109.83	435.059	109.323	435.059	109.442	435.059	108.826	435.059	108.963	435.059	108.18	435.059	108.403	435.059	107.37	435.059	107.748	435.059	106.406	435.059	106.983	435.059	105.338	435.059	106.117	435.059	104.239	435.059	105.196	435.059	103.192	435.059	104.292	435.059	102.346	435.059	103.511	435.059	102.004	435.059	103.028	435.059	102.402	435.059	103.032	435.059	103.298	435.059	103.502	435.059	104.196	435.059	104.157	435.059	104.774	435.059	104.696	435.059	104.933
451.172	110.863	451.172	110.73	451.172	110.857	451.172	110.471	451.172	110.71	451.172	110.113	451.172	110.427	451.172	109.688	451.172	110.017	451.172	109.216	451.172	109.496	451.172	108.687	451.172	108.88	451.172	108.042	451.172	108.167	451.172	107.171	451.172	107.311	451.172	105.938	451.172	106.221	451.172	104.239	451.172	104.795	451.172	102.13	451.172	103.009	451.172	100.246	451.172	101.153	451.172	100.024	451.172	100.225	451.172	101.51	451.172	101.05	451.172	103.255	451.172	102.72	451.172	104.562	451.172	104.191	451.172	105.308	451.172	105.13	451.172	105.497
465.82	110.255	465.82	110.121	465.82	110.224	465.82	109.838	465.82	110.036	465.82	109.444	465.82	109.726	465.82	108.99	465.82	109.337	465.82	108.522	465.82	108.913	465.82	108.065	465.82	108.477	465.82	107.607	465.82	108.02	465.82	107.093	465.82	107.49	465.82	106.425	465.82	106.794	465.82	105.489	465.82	105.829	465.82	104.2	465.82	104.523	465.82	102.611	465.82	102.935	465.82	101.168	465.82	101.443	465.82	100.753	465.82	100.83	465.82	101.539	465.82	101.42	465.82	102.659	465.82	102.501	465.82	103.458	465.82	103.362	465.82	103.706
483.398	110.165	483.398	110.058	483.398	110.13	483.398	109.821	483.398	109.963	483.398	109.49	483.398	109.68	483.398	109.106	483.398	109.306	483.398	108.689	483.398	108.868	483.398	108.214	483.398	108.381	483.398	107.621	483.398	107.834	483.398	106.836	483.398	107.172	483.398	105.771	483.398	106.302	483.398	104.329	483.398	105.111	483.398	102.479	483.398	103.513	483.398	100.524	483.398	101.628	483.398	99.5617	483.398	100.218	483.398	100.444	483.398	100.437	483.398	102.137	483.398	101.862	483.398	103.592	483.398	103.314	483.398	104.468	483.398	104.302	483.398	104.701
499.512	110.356	499.512	110.258	499.512	110.288	499.512	109.99	499.512	110.064	499.512	109.565	499.512	109.702	499.512	109.021	499.512	109.238	499.512	108.425	499.512	108.709	499.512	107.846	499.512	108.137	499.512	107.298	499.512	107.517	499.512	106.7	499.512	106.812	499.512	105.895	499.512	105.955	499.512	104.706	499.512	104.84	499.512	103.003	499.512	103.322	499.512	100.9	499.512	101.348	499.512	99.3759	499.512	99.5341	499.512	99.9054	499.512	99.5754	499.512	101.624	499.512	101.287	499.512	103.12	499.512	102.941	499.512	104.016	499.512	103.949	499.512	104.293
517.09	110.108	517.09	109.995	517.09	110.013	517.09	109.684	517.09	109.732	517.09	109.231	517.09	109.317	517.09	108.73	517.09	108.855	517.09	108.282	517.09	108.444	517.09	107.917	517.09	108.148	517.09	107.573	517.09	107.929	517.09	107.142	517.09	107.648	517.09	106.52	517.09	107.126	517.09	105.584	517.09	106.189	517.09	104.155	517.09	104.688	517.09	102.093	517.09	102.547	517.09	99.9176	517.09	100.135	517.09	99.7476	517.09	99.1875	517.09	101.64	517.09	100.653	517.09	103.385	517.09	102.565	517.09	104.322	517.09	103.88	517.09	104.468
536.133	110.429	536.133	110.227	536.133	110.37	536.133	109.809	536.133	110.027	536.133	109.222	536.133	109.414	536.133	108.507	536.133	108.598	536.133	107.724	536.133	107.712	536.133	106.972	536.133	106.913	536.133	106.341	536.133	106.268	536.133	105.761	536.133	105.688	536.133	104.975	536.133	105.004	536.133	103.714	536.133	104.065	536.133	101.908	536.133	102.76	536.133	99.9706	536.133	101.084	536.133	99.1029	536.133	99.6076	536.133	100.111	536.133	99.8196	536.133	102.017	536.133	101.634	536.133	103.734	536.133	103.467	536.133	104.811	536.133	104.667	536.133	105.123
555.176	110.29	555.176	110.212	555.176	110.165	555.176	109.895	555.176	109.869	555.176	109.335	555.176	109.413	555.176	108.588	555.176	108.806	555.176	107.772	555.176	108.094	555.176	107.02	555.176	107.382	555.176	106.4	555.176	106.768	555.176	105.865	555.176	106.229	555.176	105.26	555.176	105.575	555.176	104.344	555.176	104.545	555.176	102.798	555.176	102.865	555.176	100.256	555.176	100.204	555.176	96.7643	555.176	96.327	555.176	95.6559	555.176	94.3141	555.176	98.5347	555.176	97.8463	555.176	101.064	555.176	100.959	555.176	102.518	555.176	102.587	555.176	103.036
574.219	109.447	574.219	109.259	574.219	109.381	574.219	108.846	574.219	109.038	574.219	108.236	574.219	108.431	574.219	107.497	574.219	107.632	574.219	106.771	574.219	106.771	574.219	106.225	574.219	106	574.219	105.881	574.219	105.415	574.219	105.507	574.219	104.999	574.219	104.762	574.219	104.58	574.219	103.357	574.219	103.847	574.219	101.06	574.219	102.427	574.219	97.6574	574.219	99.9134	574.219	94.3894	574.219	96.1511	574.219	96.4235	574.219	94.2693	574.219	100.035	574.219	97.407	574.219	102.332	574.219	100.441	574.219	103.371	574.219	102.372	574.219	103.347
594.727	109.17	594.727	109.018	594.727	109.033	594.727	108.556	594.727	108.66	594.727	107.807	594.727	108.084	594.727	106.821	594.727	107.292	594.727	105.731	594.727	106.299	594.727	104.866	594.727	105.311	594.727	104.578	594.727	104.704	594.727	104.736	594.727	104.561	594.727	104.818	594.727	104.486	594.727	104.398	594.727	104.016	594.727	103.192	594.727	102.804	594.727	100.875	594.727	100.442	594.727	96.9754	594.727	96.1682	594.727	93.2598	594.727	90.9662	594.727	96.6762	594.727	95.4719	594.727	100.323	594.727	99.7017	594.727	102.182	594.727	101.864	594.727	102.637
615.234	109.528	615.234	109.468	615.234	109.506	615.234	109.272	615.234	109.363	615.234	108.846	615.234	109.005	615.234	108.119	615.234	108.359	615.234	107.082	615.234	107.411	615.234	105.82	615.234	106.253	615.234	104.625	615.234	105.125	615.234	103.954	615.234	104.365	615.234	103.813	615.234	104.068	615.234	103.57	615.234	103.87	615.234	102.614	615.234	103.257	615.234	100.519	615.234	101.745	615.234	96.851	615.234	98.7397	615.234	92.9293	615.234	93.9167	615.234	95.9484	615.234	94.331	615.234	99.8473	615.234	98.9121	615.234	101.925	615.234	101.521	615.234	102.451
637.207	111.037	637.207	110.852	637.207	111.017	637.207	110.487	637.207	110.765	637.207	109.944	637.207	110.273	637.207	109.197	637.207	109.562	637.207	108.24	637.207	108.655	637.207	107.171	637.207	107.608	637.207	106.226	637.207	106.614	637.207	105.686	637.207	106.011	637.207	105.576	637.207	105.881	637.207	105.495	637.207	105.803	637.207	104.821	637.207	105.246	637.207	102.886	637.207	103.772	637.207	98.881	637.207	100.908	637.207	94.9469	637.207	96.6874	637.207	99.6469	637.207	97.2831	637.207	103.425	637.207	101.537	637.207	105.145	637.207	104.201	637.207	105.349
659.18	110.012	659.18	110.013	659.18	109.909	659.18	109.836	659.18	109.758	659.18	109.443	659.18	109.548	659.18	108.854	659.18	109.203	659.18	108.106	659.18	108.607	659.18	107.195	659.18	107.667	659.18	106.115	659.18	106.432	659.18	104.95	659.18	105.2	659.18	103.906	659.18	104.354	659.18	103.129	659.18	103.849	659.18	102.406	659.18	103.159	659.18	101.15	659.18	101.72	659.18	98.6025	659.18	99.0053	659.18	94.6426	659.18	94.6895	659.18	95.0883	659.18	94.092	659.18	98.7844	659.18	98.2703	659.18	100.854	659.18	100.713	659.18	101.455
682.617	109.912	682.617	109.707	682.617	109.911	682.617	109.354	682.617	109.649	682.617	108.853	682.617	109.127	682.617	108.167	682.617	108.413	682.617	107.308	682.617	107.608	682.617	106.402	682.617	106.819	682.617	105.633	682.617	106.108	682.617	105.089	682.617	105.468	682.617	104.692	682.617	104.901	682.617	104.225	682.617	104.43	682.617	103.388	682.617	103.862	682.617	101.836	682.617	102.717	682.617	99.1298	682.617	100.381	682.617	94.9897	682.617	95.9554	682.617	94.2503	682.617	91.18	682.617	98.5748	682.617	96.6051	682.617	101.305	682.617	100.547	682.617	101.962
707.52	110.598	707.52	110.361	707.52	110.504	707.52	109.816	707.52	110.084	707.52	109.029	707.52	109.377	707.52	108.069	707.52	108.47	707.52	106.951	707.52	107.439	707.52	105.735	707.52	106.332	707.52	104.727	707.52	105.316	707.52	104.244	707.52	104.669	707.52	104.045	707.52	104.319	707.52	103.576	707.52	103.829	707.52	102.459	707.52	102.872	707.52	100.35	707.52	101.17	707.52	96.5247	707.52	98.1043	707.52	90.8204	707.52	92.688	707.52	94.4436	707.52	92.0043	707.52	99.0984	707.52	97.3516	707.52	101.199	707.52	100.31	707.52	101.511
732.422	110.512	732.422	110.399	732.422	110.425	732.422	110.032	732.422	110.126	732.422	109.336	732.422	109.574	732.422	108.31	732.422	108.761	732.422	107.096	732.422	107.738	732.422	105.861	732.422	106.532	732.422	104.647	732.422	105.11	732.422	103.495	732.422	103.651	732.422	102.59	732.422	102.74	732.422	101.882	732.422	102.495	732.422	100.851	732.422	102.035	732.422	98.8698	732.422	100.603	732.422	95.3037	732.422	97.8133	732.422	91.0077	732.422	93.2543	732.422	94.2145	732.422	92.1051	732.422	98.369	732.422	97.0889	732.422	100.477	732.422	99.9974	732.422	100.986
757.324	110.819	757.324	110.559	757.324	110.786	757.324	110.04	757.324	110.443	757.324	109.28	757.324	109.801	757.324	108.272	757.324	108.88	757.324	107.025	757.324	107.712	757.324	105.708	757.324	106.41	757.324	104.705	757.324	105.295	757.324	104.241	757.324	104.724	757.324	104.078	757.324	104.626	757.324	103.806	757.324	104.548	757.324	102.985	757.324	104.002	757.324	101.001	757.324	102.51	757.324	96.7558	757.324	99.4242	757.324	88.1063	757.324	93.4812	757.324	92.2682	757.324	89.3386	757.324	97.2227	757.324	95.652	757.324	99.2543	757.324	98.7538	757.324	99.7369
785.156	110.383	785.156	110.218	785.156	110.335	785.156	109.814	785.156	110.079	785.156	109.176	785.156	109.584	785.156	108.319	785.156	108.808	785.156	107.197	785.156	107.717	785.156	105.729	785.156	106.315	785.156	104.059	785.156	104.751	785.156	102.835	785.156	103.422	785.156	102.596	785.156	102.734	785.156	102.778	785.156	102.597	785.156	102.516	785.156	102.482	785.156	101.192	785.156	101.706	785.156	98.0573	785.156	99.3857	785.156	91.101	785.156	93.6236	785.156	90.1985	785.156	87.754	785.156	97.5697	785.156	96.6562	785.156	100.557	785.156	100.143	785.156	101.246
811.523	110.579	811.523	110.375	811.523	110.525	811.523	109.931	811.523	110.149	811.523	109.186	811.523	109.424	811.523	108.105	811.523	108.409	811.523	106.788	811.523	107.231	811.523	105.415	811.523	105.989	811.523	104.129	811.523	104.727	811.523	103.228	811.523	103.638	811.523	103.088	811.523	103.137	811.523	103.339	811.523	103.225	811.523	103.198	811.523	103.245	811.523	102.113	811.523	102.484	811.523	99.4507	811.523	100.216	811.523	93.6992	811.523	95.1435	811.523	89.5682	811.523	87.9169	811.523	96.8168	811.523	94.9198	811.523	99.9319	811.523	98.9527	811.523	100.475
840.82	110.773	840.82	110.694	840.82	110.685	840.82	110.37	840.82	110.407	840.82	109.734	840.82	109.85	840.82	108.788	840.82	108.978	840.82	107.511	840.82	107.772	840.82	105.821	840.82	106.126	840.82	103.746	840.82	104.027	840.82	101.818	840.82	102.089	840.82	101.165	840.82	101.71	840.82	101.803	840.82	102.497	840.82	102.347	840.82	102.83	840.82	101.918	840.82	102.165	840.82	99.8908	840.82	100.264	840.82	94.4117	840.82	96.0817	840.82	85.9183	840.82	85.1731	840.82	97.305	840.82	94.7286	840.82	101.149	840.82	100.223	840.82	101.948
870.117	111.015	870.117	110.818	870.117	110.792	870.117	110.263	870.117	110.304	870.117	109.557	870.117	109.667	870.117	108.752	870.117	108.835	870.117	107.703	870.117	107.759	870.117	106.305	870.117	106.405	870.117	104.543	870.117	104.621	870.117	102.539	870.117	102.408	870.117	101.139	870.117	100.726	870.117	101.446	870.117	100.786	870.117	102.411	870.117	101.582	870.117	102.408	870.117	101.853	870.117	100.519	870.117	100.853	870.117	95.5351	870.117	97.2279	870.117	80.1904	870.117	86.1923	870.117	93.6341	870.117	93.3659	870.117	98.5907	870.117	98.5959	870.117	99.8822
900.879	111.311	900.879	111.157	900.879	111.177	900.879	110.737	900.879	110.794	900.879	110.03	900.879	110.211	900.879	109.005	900.879	109.342	900.879	107.735	900.879	108.068	900.879	106.254	900.879	106.43	900.879	104.343	900.879	104.554	900.879	101.911	900.879	102.466	900.879	100.161	900.879	100.612	900.879	100.583	900.879	100.394	900.879	101.511	900.879	101.315	900.879	101.441	900.879	101.562	900.879	99.8279	900.879	100.156	900.879	95.4242	900.879	95.8637	900.879	83.1683	900.879	82.2746	900.879	94.5348	900.879	93.0335	900.879	99.2322	900.879	98.6138	900.879	100.271
933.105	111.387	933.105	111.211	933.105	111.211	933.105	110.604	933.105	110.719	933.105	109.685	933.105	109.914	933.105	108.756	933.105	108.862	933.105	107.801	933.105	107.66	933.105	106.382	933.105	106.322	933.105	104.338	933.105	104.696	933.105	102.219	933.105	102.519	933.105	100.696	933.105	99.946	933.105	100.183	933.105	98.89	933.105	100.942	933.105	100.032	933.105	101.548	933.105	100.787	933.105	100.23	933.105	99.7691	933.105	95.6872	933.105	96.0384	933.105	82.6316	933.105	85.7162	933.105	91.489	933.105	91.2094	933.105	97.6189	933.105	97.7076	933.105	99.3587
965.332	111.299	965.332	111.162	965.332	111.071	965.332	110.694	965.332	110.591	965.332	109.909	965.332	109.919	965.332	108.735	965.332	108.89	965.332	107.299	965.332	107.453	965.332	105.87	965.332	105.898	965.332	104.241	965.332	104.318	965.332	102.056	965.332	102.233	965.332	100.08	965.332	99.6151	965.332	99.6133	965.332	98.4947	965.332	99.6623	965.332	99.4766	965.332	99.5012	965.332	100.228	965.332	98.905	965.332	99.8415	965.332	96.0366	965.332	97.285	965.332	86.8125	965.332	88.2059	965.332	94.5479	965.332	90.2644	965.332	98.2359	965.332	96.6217	965.332	98.3828
1,000.49	111.395	1,000.49	111.167	1,000.49	111.189	1,000.49	110.453	1,000.49	110.673	1,000.49	109.437	1,000.49	109.852	1,000.49	108.404	1,000.49	108.698	1,000.49	107.345	1,000.49	107.386	1,000.49	105.917	1,000.49	106.14	1,000.49	103.976	1,000.49	104.731	1,000.49	101.853	1,000.49	102.668	1,000.49	100.001	1,000.49	100.137	1,000.49	99.2318	1,000.49	98.2811	1,000.49	100.389	1,000.49	98.034	1,000.49	101.295	1,000.49	99.0662	1,000.49	100.1	1,000.49	99.3616	1,000.49	96.0078	1,000.49	97.0004	1,000.49	85.8454	1,000.49	89.1277	1,000.49	91.8178	1,000.49	85.9944	1,000.49	97.0204	1,000.49	95.1326	1,000.49	97.7233
1,035.64	111.366	1,035.64	110.965	1,035.64	111.282	1,035.64	110.339	1,035.64	110.543	1,035.64	109.468	1,035.64	109.48	1,035.64	108.305	1,035.64	108.536	1,035.64	106.976	1,035.64	107.553	1,035.64	105.552	1,035.64	106.168	1,035.64	103.924	1,035.64	104.44	1,035.64	101.977	1,035.64	102.471	1,035.64	99.856	1,035.64	100.02	1,035.64	98.5802	1,035.64	97.4832	1,035.64	98.8314	1,035.64	97.379	1,035.64	99.4123	1,035.64	98.9605	1,035.64	99.3535	1,035.64	99.2473	1,035.64	97.5523	1,035.64	97.6068	1,035.64	91.6061	1,035.64	93.2478	1,035.64	88.6866	1,035.64	85.8701	1,035.64	93.8985	1,035.64	90.5541	1,035.64	93.9328
1,072.27	110.642	1,072.27	110.554	1,072.27	110.439	1,072.27	109.925	1,072.27	110.2	1,072.27	108.877	1,072.27	109.652	1,072.27	107.705	1,072.27	108.368	1,072.27	106.398	1,072.27	106.606	1,072.27	104.711	1,072.27	105.018	1,072.27	102.845	1,072.27	103.519	1,072.27	101.006	1,072.27	101.86	1,072.27	98.4301	1,072.27	100.204	1,072.27	95.4448	1,072.27	97.9867	1,072.27	95.3215	1,072.27	95.1036	1,072.27	96.5778	1,072.27	95.3782	1,072.27	96.7326	1,072.27	96.8751	1,072.27	95.593	1,072.27	96.4189	1,072.27	92.5233	1,072.27	93.8583	1,072.27	90.964	1,072.27	89.7334	1,072.27	95.8667	1,072.27	92.8438	1,072.27	96.6904
1,108.89	111.212	1,108.89	110.805	1,108.89	111.231	1,108.89	110.242	1,108.89	110.587	1,108.89	109.315	1,108.89	109.554	1,108.89	107.955	1,108.89	108.527	1,108.89	106.521	1,108.89	107.391	1,108.89	105.08	1,108.89	105.929	1,108.89	103.158	1,108.89	104.013	1,108.89	100.677	1,108.89	101.309	1,108.89	98.7524	1,108.89	98.4071	1,108.89	98.1227	1,108.89	97.6364	1,108.89	97.087	1,108.89	98.1802	1,108.89	95.0869	1,108.89	97.3167	1,108.89	93.1199	1,108.89	94.9293	1,108.89	90.6502	1,108.89	93.0787	1,108.89	90.3517	1,108.89	91.8383	1,108.89	94.1451	1,108.89	92.5726	1,108.89	96.2731	1,108.89	95.7806	1,108.89	96.9638
1,148.44	111.555	1,148.44	111.113	1,148.44	111.388	1,148.44	110.144	1,148.44	110.688	1,148.44	108.894	1,148.44	109.516	1,148.44	107.468	1,148.44	108.046	1,148.44	106.057	1,148.44	106.745	1,148.44	105.054	1,148.44	105.937	1,148.44	103.813	1,148.44	105.006	1,148.44	101.234	1,148.44	103.082	1,148.44	97.5271	1,148.44	100.167	1,148.44	96.9869	1,148.44	98.3875	1,148.44	98.8535	1,148.44	99.6831	1,148.44	99.3274	1,148.44	100.524	1,148.44	97.5481	1,148.44	99.4639	1,148.44	90.0133	1,148.44	95.3186	1,148.44	86.4375	1,148.44	80.6276	1,148.44	96.6269	1,148.44	92.9521	1,148.44	100.507	1,148.44	99.0658	1,148.44	101.326
1,189.45	111.151	1,189.45	110.908	1,189.45	111.022	1,189.45	110.269	1,189.45	110.534	1,189.45	109.063	1,189.45	109.461	1,189.45	107.079	1,189.45	107.603	1,189.45	104.81	1,189.45	105.388	1,189.45	103.426	1,189.45	103.919	1,189.45	102.918	1,189.45	103.491	1,189.45	101.826	1,189.45	102.696	1,189.45	98.2676	1,189.45	100.158	1,189.45	91.9195	1,189.45	94.7617	1,189.45	96.8163	1,189.45	95.9567	1,189.45	100.44	1,189.45	100.737	1,189.45	100.662	1,189.45	101.399	1,189.45	97.9661	1,189.45	98.8969	1,189.45	91.5831	1,189.45	91.909	1,189.45	95.4048	1,189.45	95.4486	1,189.45	100.365	1,189.45	101.139	1,189.45	102.077
1,230.47	110.485	1,230.47	110.372	1,230.47	110.293	1,230.47	109.916	1,230.47	109.885	1,230.47	109.149	1,230.47	109.201	1,230.47	107.905	1,230.47	108.152	1,230.47	106.169	1,230.47	106.564	1,230.47	104.306	1,230.47	104.242	1,230.47	102.79	1,230.47	102.074	1,230.47	102.125	1,230.47	101.561	1,230.47	101.199	1,230.47	101.016	1,230.47	97.6417	1,230.47	97.901	1,230.47	90.3507	1,230.47	90.0882	1,230.47	97.8162	1,230.47	96.0309	1,230.47	101.46	1,230.47	100.992	1,230.47	101.349	1,230.47	101.521	1,230.47	97.2903	1,230.47	98.5343	1,230.47	92.663	1,230.47	94.4905	1,230.47	97.4313	1,230.47	96.2296	1,230.47	98.7451
1,274.41	109.967	1,274.41	109.78	1,274.41	109.83	1,274.41	109.179	1,274.41	109.1	1,274.41	108.158	1,274.41	107.844	1,274.41	107.106	1,274.41	106.619	1,274.41	106.008	1,274.41	105.403	1,274.41	104.481	1,274.41	103.7	1,274.41	102.612	1,274.41	101.539	1,274.41	101.013	1,274.41	99.4195	1,274.41	99.7999	1,274.41	98.1874	1,274.41	98.1733	1,274.41	97.5743	1,274.41	95.3924	1,274.41	95.1448	1,274.41	93.3483	1,274.41	90.782	1,274.41	97.7472	1,274.41	95.2558	1,274.41	99.9819	1,274.41	98.8835	1,274.41	98.5304	1,274.41	99.158	1,274.41	93.8931	1,274.41	95.2552	1,274.41	89.6516	1,274.41	88.0572	1,274.41	89.3648
1,319.82	109.954	1,319.82	109.594	1,319.82	109.708	1,319.82	108.965	1,319.82	108.998	1,319.82	108.115	1,319.82	108.034	1,319.82	106.651	1,319.82	106.519	1,319.82	104.864	1,319.82	104.458	1,319.82	103.518	1,319.82	102.848	1,319.82	102.31	1,319.82	102.194	1,319.82	100.889	1,319.82	100.914	1,319.82	98.572	1,319.82	98.2607	1,319.82	95.6818	1,319.82	95.5895	1,319.82	95.3965	1,319.82	95.0704	1,319.82	95.7479	1,319.82	94.9141	1,319.82	95.0346	1,319.82	92.9458	1,319.82	93.1994	1,319.82	91.2815	1,319.82	93.0924	1,319.82	89.4599	1,319.82	94.5662	1,319.82	88.695	1,319.82	97.3652	1,319.82	94.7935	1,319.82	98.0816
1,366.7	109.777	1,366.7	109.512	1,366.7	109.618	1,366.7	108.849	1,366.7	109.097	1,366.7	108.035	1,366.7	108.173	1,366.7	106.947	1,366.7	106.803	1,366.7	105.154	1,366.7	105.066	1,366.7	103.168	1,366.7	103.286	1,366.7	102.084	1,366.7	101.884	1,366.7	101.443	1,366.7	100.675	1,366.7	100.032	1,366.7	99.1073	1,366.7	97.8495	1,366.7	95.623	1,366.7	95.7252	1,366.7	92.4986	1,366.7	96.0078	1,366.7	96.1668	1,366.7	96.7921	1,366.7	96.7156	1,366.7	93.997	1,366.7	95.0481	1,366.7	85.5462	1,366.7	91.9687	1,366.7	86.8414	1,366.7	81.6993	1,366.7	94.7751	1,366.7	89.2221	1,366.7	95.1772
1,413.57	109.721	1,413.57	109.407	1,413.57	109.33	1,413.57	108.211	1,413.57	108.935	1,413.57	106.908	1,413.57	108.27	1,413.57	105.944	1,413.57	106.659	1,413.57	104.23	1,413.57	105.123	1,413.57	101.961	1,413.57	103.599	1,413.57	100.358	1,413.57	100.897	1,413.57	99.2995	1,413.57	98.8651	1,413.57	97.7117	1,413.57	97.8694	1,413.57	94.6982	1,413.57	96.3187	1,413.57	92.4407	1,413.57	94.0623	1,413.57	95.1353	1,413.57	90.1367	1,413.57	95.4547	1,413.57	93.8209	1,413.57	93.8339	1,413.57	96.5214	1,413.57	87.4793	1,413.57	92.7713	1,413.57	87.7246	1,413.57	82.5766	1,413.57	95.8376	1,413.57	91.913	1,413.57	96.1701
1,463.38	110.502	1,463.38	110.4	1,463.38	110.634	1,463.38	109.764	1,463.38	110.05	1,463.38	108.532	1,463.38	108.77	1,463.38	107.092	1,463.38	107.742	1,463.38	105.143	1,463.38	105.98	1,463.38	103.5	1,463.38	103.653	1,463.38	102.04	1,463.38	102.996	1,463.38	99.5386	1,463.38	101.715	1,463.38	97.8248	1,463.38	99.9085	1,463.38	96.3915	1,463.38	98.356	1,463.38	93.9885	1,463.38	94.6328	1,463.38	94.0643	1,463.38	93.7755	1,463.38	95.713	1,463.38	96.2942	1,463.38	96.7718	1,463.38	97.7028	1,463.38	91.9618	1,463.38	96.9831	1,463.38	85.97	1,463.38	87.0023	1,463.38	91.9941	1,463.38	92.8303	1,463.38	93.3034
1,516.11	111.535	1,516.11	111.201	1,516.11	111.268	1,516.11	110.346	1,516.11	110.346	1,516.11	108.996	1,516.11	109.718	1,516.11	107.436	1,516.11	108.758	1,516.11	105.77	1,516.11	107.382	1,516.11	103.451	1,516.11	106.23	1,516.11	100.378	1,516.11	104.258	1,516.11	98.7761	1,516.11	102.57	1,516.11	98.9494	1,516.11	101.683	1,516.11	97.656	1,516.11	100.253	1,516.11	90.3441	1,516.11	97.3945	1,516.11	91.4175	1,516.11	92.6988	1,516.11	97.5011	1,516.11	90.7262	1,516.11	98.3094	1,516.11	93.9385	1,516.11	95.2874	1,516.11	92.5255	1,516.11	72.7167	1,516.11	87.1936	1,516.11	94.8197	1,516.11	91.5446	1,516.11	96.5114
1,568.85	112.209	1,568.85	111.983	1,568.85	112.17	1,568.85	111.179	1,568.85	111.451	1,568.85	110.221	1,568.85	110.268	1,568.85	108.83	1,568.85	109.214	1,568.85	107.279	1,568.85	108.159	1,568.85	106.189	1,568.85	106.753	1,568.85	103.61	1,568.85	105.155	1,568.85	102.216	1,568.85	103.34	1,568.85	101.091	1,568.85	101.677	1,568.85	98.6588	1,568.85	100.455	1,568.85	96.2224	1,568.85	97.815	1,568.85	88.5965	1,568.85	97.1785	1,568.85	91.3687	1,568.85	96.452	1,568.85	92.1812	1,568.85	98.507	1,568.85	93.4954	1,568.85	97.3626	1,568.85	81.3158	1,568.85	92.1619	1,568.85	92.2291	1,568.85	79.1817	1,568.85	91.887
1,624.51	112.545	1,624.51	112.007	1,624.51	112.361	1,624.51	111.057	1,624.51	111.292	1,624.51	110.223	1,624.51	110.05	1,624.51	108.993	1,624.51	109.091	1,624.51	106.693	1,624.51	108.015	1,624.51	105.24	1,624.51	106.108	1,624.51	103.939	1,624.51	103.844	1,624.51	102.592	1,624.51	102.461	1,624.51	101.474	1,624.51	101.539	1,624.51	98.2928	1,624.51	99.8389	1,624.51	97.8159	1,624.51	97.7892	1,624.51	96.7537	1,624.51	97.3724	1,624.51	95.082	1,624.51	96.097	1,624.51	92.3091	1,624.51	95.0107	1,624.51	95.7643	1,624.51	92.9891	1,624.51	86.0571	1,624.51	93.2645	1,624.51	94.2742	1,624.51	75.4595	1,624.51	95.649
1,681.64	112.047	1,681.64	112.155	1,681.64	111.579	1,681.64	111.618	1,681.64	111.422	1,681.64	109.323	1,681.64	110.444	1,681.64	107.116	1,681.64	108.445	1,681.64	107.031	1,681.64	106.624	1,681.64	104.983	1,681.64	105.588	1,681.64	102.425	1,681.64	103.393	1,681.64	100.46	1,681.64	100.76	1,681.64	97.1687	1,681.64	99.0914	1,681.64	96.1334	1,681.64	98.6152	1,681.64	97.3554	1,681.64	94.3241	1,681.64	98.5342	1,681.64	94.6576	1,681.64	98.3241	1,681.64	95.1463	1,681.64	99.2669	1,681.64	96.9531	1,681.64	97.8368	1,681.64	96.9374	1,681.64	95.2587	1,681.64	93.2811	1,681.64	92.9039	1,681.64	87.375	1,681.64	95.8832
1,741.7	111.602	1,741.7	110.967	1,741.7	111.85	1,741.7	109.941	1,741.7	110.972	1,741.7	108.586	1,741.7	109.389	1,741.7	107.753	1,741.7	107.978	1,741.7	106.164	1,741.7	107.074	1,741.7	104.18	1,741.7	105.314	1,741.7	102.636	1,741.7	103.729	1,741.7	101.655	1,741.7	102.589	1,741.7	100.773	1,741.7	100.601	1,741.7	100.452	1,741.7	98.8312	1,741.7	98.9602	1,741.7	98.7673	1,741.7	93.3656	1,741.7	97.1897	1,741.7	95.0352	1,741.7	88.6598	1,741.7	97.8434	1,741.7	91.5052	1,741.7	95.7908	1,741.7	96.6515	1,741.7	78.2441	1,741.7	93.2223	1,741.7	88.1432	1,741.7	93.5095	1,741.7	93.5771
1,803.22	111.84	1,803.22	111.067	1,803.22	111.46	1,803.22	110.11	1,803.22	111.075	1,803.22	108.923	1,803.22	110.01	1,803.22	106.482	1,803.22	109.094	1,803.22	105.057	1,803.22	107.363	1,803.22	103.758	1,803.22	105.503	1,803.22	101.729	1,803.22	104.494	1,803.22	98.9985	1,803.22	100.219	1,803.22	96.2846	1,803.22	99.2876	1,803.22	98.4582	1,803.22	99.2589	1,803.22	97.3372	1,803.22	98.6139	1,803.22	93.5082	1,803.22	95.9438	1,803.22	91.8669	1,803.22	94.2743	1,803.22	93.1276	1,803.22	95.506	1,803.22	97.2038	1,803.22	95.9936	1,803.22	95.0533	1,803.22	95.112	1,803.22	93.5775	1,803.22	85.8967	1,803.22	93.9934
1,866.21	112.03	1,866.21	111.314	1,866.21	112.179	1,866.21	110.96	1,866.21	111.729	1,866.21	109.694	1,866.21	110.864	1,866.21	108.021	1,866.21	108.664	1,866.21	107.384	1,866.21	106.87	1,866.21	103.573	1,866.21	106.281	1,866.21	101.732	1,866.21	104.213	1,866.21	100.962	1,866.21	102.554	1,866.21	100.699	1,866.21	100.02	1,866.21	96.3995	1,866.21	98.7907	1,866.21	93.8303	1,866.21	98.9761	1,866.21	95.651	1,866.21	97.6799	1,866.21	93.7436	1,866.21	96.9077	1,866.21	92.783	1,866.21	94.2549	1,866.21	90.2958	1,866.21	94.2978	1,866.21	85.7075	1,866.21	86.7646	1,866.21	89.7866	1,866.21	96.8854	1,866.21	94.248
1,932.13	112.418	1,932.13	111.826	1,932.13	112.599	1,932.13	110.948	1,932.13	111.688	1,932.13	110.526	1,932.13	110.904	1,932.13	109.044	1,932.13	109.287	1,932.13	106.632	1,932.13	105.171	1,932.13	105.852	1,932.13	102.41	1,932.13	104.757	1,932.13	102.16	1,932.13	101.237	1,932.13	102.234	1,932.13	98.4499	1,932.13	99.3057	1,932.13	97.0727	1,932.13	96.5286	1,932.13	94.6786	1,932.13	98.4204	1,932.13	95.4473	1,932.13	97.4041	1,932.13	96.9155	1,932.13	93.674	1,932.13	97.0636	1,932.13	95.2877	1,932.13	95.7602	1,932.13	97.7346	1,932.13	92.0239	1,932.13	96.015	1,932.13	88.9012	1,932.13	77.2842	1,932.13	93.8596
1,999.51	112.105	1,999.51	111.52	1,999.51	111.852	1,999.51	111.61	1,999.51	110.595	1,999.51	109.883	1,999.51	110.645	1,999.51	109.138	1,999.51	110.285	1,999.51	107.868	1,999.51	108.172	1,999.51	105.291	1,999.51	105.92	1,999.51	103.102	1,999.51	102.142	1,999.51	102.107	1,999.51	100.835	1,999.51	100.722	1,999.51	98.1525	1,999.51	97.0637	1,999.51	96.9873	1,999.51	98.1272	1,999.51	92.0448	1,999.51	97.8062	1,999.51	93.098	1,999.51	100.756	1,999.51	94.3776	1,999.51	97.7489	1,999.51	92.0555	1,999.51	99.9538	1,999.51	93.2822	1,999.51	97.2718	1,999.51	99.0033	1,999.51	87.7172	1,999.51	91.6732	1,999.51	94.2445
2,069.82	111.664	2,069.82	111.449	2,069.82	111.173	2,069.82	110.173	2,069.82	110.323	2,069.82	109.21	2,069.82	109.613	2,069.82	108.562	2,069.82	108.438	2,069.82	107.498	2,069.82	107.206	2,069.82	105.078	2,069.82	105.729	2,069.82	102.877	2,069.82	104.163	2,069.82	101.604	2,069.82	102.662	2,069.82	97.9215	2,069.82	99.6822	2,069.82	98.1651	2,069.82	97.6964	2,069.82	97.8354	2,069.82	94.5697	2,069.82	97.7235	2,069.82	89.5954	2,069.82	96.2184	2,069.82	88.9767	2,069.82	97.0181	2,069.82	88.6379	2,069.82	95.2037	2,069.82	94.2159	2,069.82	88.9302	2,069.82	97.0875	2,069.82	92.7232	2,069.82	92.1562	2,069.82	91.6414
2,143.07	110.471	2,143.07	110.268	2,143.07	110.167	2,143.07	110.074	2,143.07	110.313	2,143.07	109.484	2,143.07	109.265	2,143.07	107.295	2,143.07	108.649	2,143.07	105.423	2,143.07	108.632	2,143.07	102.922	2,143.07	106.401	2,143.07	101.42	2,143.07	104.74	2,143.07	100.83	2,143.07	101.154	2,143.07	96.5232	2,143.07	99.3221	2,143.07	98.6563	2,143.07	101.61	2,143.07	96.5026	2,143.07	98.6009	2,143.07	92.2971	2,143.07	94.179	2,143.07	93.6923	2,143.07	97.2183	2,143.07	86.4906	2,143.07	94.3562	2,143.07	93.1774	2,143.07	93.9353	2,143.07	93.4952	2,143.07	84.3811	2,143.07	96.4041	2,143.07	91.0795	2,143.07	96.0827
2,219.24	111.404	2,219.24	110.878	2,219.24	110.512	2,219.24	110.2	2,219.24	110.16	2,219.24	109.815	2,219.24	109.484	2,219.24	109.039	2,219.24	108.692	2,219.24	107.274	2,219.24	107.818	2,219.24	105.751	2,219.24	106.407	2,219.24	102.498	2,219.24	105.519	2,219.24	98.1152	2,219.24	102.24	2,219.24	99.1657	2,219.24	101.973	2,219.24	98.341	2,219.24	99.2713	2,219.24	93.3476	2,219.24	94.9479	2,219.24	91.7265	2,219.24	98.4419	2,219.24	89.0783	2,219.24	96.8128	2,219.24	81.3349	2,219.24	94.3644	2,219.24	93.4823	2,219.24	96.4338	2,219.24	86.2489	2,219.24	95.3626	2,219.24	92.027	2,219.24	93.9515	2,219.24	92.5831
2,296.88	111.674	2,296.88	111.905	2,296.88	110.581	2,296.88	110.99	2,296.88	110.093	2,296.88	110.553	2,296.88	109.899	2,296.88	109.123	2,296.88	108.755	2,296.88	107.647	2,296.88	106.574	2,296.88	105.643	2,296.88	105.356	2,296.88	103.51	2,296.88	103.192	2,296.88	102.47	2,296.88	102.691	2,296.88	99.0135	2,296.88	99.9738	2,296.88	95.8422	2,296.88	95.2804	2,296.88	96.9675	2,296.88	95.9006	2,296.88	92.0708	2,296.88	89.8083	2,296.88	97.1666	2,296.88	89.9534	2,296.88	93.7559	2,296.88	93.3007	2,296.88	95.4963	2,296.88	90.1118	2,296.88	90.2542	2,296.88	94.0915	2,296.88	90.0553	2,296.88	90.8182	2,296.88	93.785
2,378.91	110.215	2,378.91	109.852	2,378.91	110.013	2,378.91	110.067	2,378.91	109.863	2,378.91	109.154	2,378.91	109.401	2,378.91	108.303	2,378.91	108.294	2,378.91	106.883	2,378.91	107.561	2,378.91	104.281	2,378.91	105.636	2,378.91	103.312	2,378.91	103.336	2,378.91	103.149	2,378.91	100.825	2,378.91	101.106	2,378.91	99.8337	2,378.91	97.0171	2,378.91	95.944	2,378.91	95.318	2,378.91	95.1278	2,378.91	93.4265	2,378.91	91.7352	2,378.91	92.6064	2,378.91	94.633	2,378.91	90.5976	2,378.91	95.8192	2,378.91	93.4885	2,378.91	95.6734	2,378.91	92.0253	2,378.91	89.5101	2,378.91	94.4864	2,378.91	83.1817	2,378.91	96.7307
2,462.4	109.815	2,462.4	109.733	2,462.4	109.986	2,462.4	109.456	2,462.4	109.486	2,462.4	108.385	2,462.4	109.213	2,462.4	106.834	2,462.4	108.368	2,462.4	105.516	2,462.4	107.198	2,462.4	103.517	2,462.4	105.17	2,462.4	100.49	2,462.4	102.795	2,462.4	99.3747	2,462.4	100.431	2,462.4	98.006	2,462.4	99.0179	2,462.4	94.5078	2,462.4	96.5337	2,462.4	93.0231	2,462.4	95.1301	2,462.4	90.2679	2,462.4	93.2804	2,462.4	92.7992	2,462.4	90.0295	2,462.4	93.0307	2,462.4	94.0735	2,462.4	91.5192	2,462.4	92.9641	2,462.4	88.8991	2,462.4	92.065	2,462.4	91.2992	2,462.4	91.7539	2,462.4	93.8694
2,548.83	111.248	2,548.83	111.37	2,548.83	111.067	2,548.83	110.985	2,548.83	111.522	2,548.83	110.595	2,548.83	110.853	2,548.83	108.557	2,548.83	109.457	2,548.83	106.675	2,548.83	107.451	2,548.83	105.196	2,548.83	105.665	2,548.83	102.157	2,548.83	103.48	2,548.83	99.644	2,548.83	101.202	2,548.83	97.217	2,548.83	99.323	2,548.83	95.1779	2,548.83	97.2557	2,548.83	93.0865	2,548.83	95.2907	2,548.83	90.419	2,548.83	94.0914	2,548.83	87.7196	2,548.83	90.8803	2,548.83	92.754	2,548.83	93.727	2,548.83	92.1619	2,548.83	95.1109	2,548.83	90.5261	2,548.83	93.6429	2,548.83	91.8065	2,548.83	91.1798	2,548.83	93.7028
2,639.65	112.053	2,639.65	111.971	2,639.65	111.891	2,639.65	111.515	2,639.65	111.648	2,639.65	110.908	2,639.65	110.774	2,639.65	109.341	2,639.65	109.5	2,639.65	107.253	2,639.65	107.108	2,639.65	105.241	2,639.65	105.16	2,639.65	103.38	2,639.65	102.899	2,639.65	101.215	2,639.65	100.581	2,639.65	99.1028	2,639.65	99.3318	2,639.65	96.7587	2,639.65	97.1921	2,639.65	94.4652	2,639.65	95.2698	2,639.65	92.158	2,639.65	93.096	2,639.65	91.4111	2,639.65	90.7869	2,639.65	90.6878	2,639.65	92.0156	2,639.65	93.0836	2,639.65	93.5719	2,639.65	93.9408	2,639.65	95.931	2,639.65	85.9172	2,639.65	91.1867	2,639.65	93.2158
2,731.93	111.198	2,731.93	110.873	2,731.93	111.405	2,731.93	110.626	2,731.93	110.537	2,731.93	109.42	2,731.93	109.85	2,731.93	108.008	2,731.93	108.517	2,731.93	106.133	2,731.93	106.842	2,731.93	104.198	2,731.93	104.49	2,731.93	102.638	2,731.93	102.279	2,731.93	100.927	2,731.93	99.5324	2,731.93	99.2657	2,731.93	97.3094	2,731.93	97.2873	2,731.93	95.9575	2,731.93	95.5862	2,731.93	92.8593	2,731.93	93.0613	2,731.93	91.9746	2,731.93	91.4567	2,731.93	90.0818	2,731.93	93.0338	2,731.93	92.688	2,731.93	90.5348	2,731.93	88.747	2,731.93	93.3919	2,731.93	93.6469	2,731.93	91.52	2,731.93	88.8516	2,731.93	92.8077
2,828.61	110.396	2,828.61	110.204	2,828.61	110.318	2,828.61	109.461	2,828.61	109.894	2,828.61	108.14	2,828.61	109.044	2,828.61	107.006	2,828.61	107.865	2,828.61	105.436	2,828.61	106.148	2,828.61	103.373	2,828.61	103.963	2,828.61	101.416	2,828.61	102.268	2,828.61	99.6272	2,828.61	100.106	2,828.61	97.8052	2,828.61	97.2074	2,828.61	96.2522	2,828.61	95.8276	2,828.61	93.7773	2,828.61	94.8521	2,828.61	91.3775	2,828.61	91.7197	2,828.61	89.8377	2,828.61	87.9557	2,828.61	91.5778	2,828.61	92.1633	2,828.61	90.5095	2,828.61	89.4674	2,828.61	91.4143	2,828.61	92.1763	2,828.61	88.5816	2,828.61	89.3035	2,828.61	92.1668
2,928.22	110.661	2,928.22	110.675	2,928.22	110.364	2,928.22	109.961	2,928.22	110.288	2,928.22	108.898	2,928.22	109.298	2,928.22	107.392	2,928.22	108.071	2,928.22	105.849	2,928.22	106.699	2,928.22	103.815	2,928.22	104.874	2,928.22	101.373	2,928.22	102.996	2,928.22	98.8609	2,928.22	101.259	2,928.22	96.7613	2,928.22	99.1346	2,928.22	95.6674	2,928.22	96.4373	2,928.22	93.718	2,928.22	95.203	2,928.22	91.2216	2,928.22	93.1558	2,928.22	87.3018	2,928.22	89.3483	2,928.22	92.3618	2,928.22	91.7019	2,928.22	86.8928	2,928.22	91.5952	2,928.22	91.6565	2,928.22	92.3364	2,928.22	91.9246	2,928.22	91.1794	2,928.22	92.714
3,030.76	111.165	3,030.76	110.896	3,030.76	111.043	3,030.76	110.572	3,030.76	110.567	3,030.76	109.82	3,030.76	109.722	3,030.76	108.632	3,030.76	108.556	3,030.76	106.745	3,030.76	107.24	3,030.76	104.651	3,030.76	105.705	3,030.76	102.59	3,030.76	103.958	3,030.76	99.6739	3,030.76	101.467	3,030.76	97.5392	3,030.76	99.3919	3,030.76	96.2787	3,030.76	97.1309	3,030.76	95.0726	3,030.76	95.78	3,030.76	92.2834	3,030.76	94.2179	3,030.76	88.0428	3,030.76	88.697	3,030.76	92.6992	3,030.76	91.3482	3,030.76	89.3789	3,030.76	92.6938	3,030.76	92.0578	3,030.76	91.8769	3,030.76	91.3284	3,030.76	91.0918	3,030.76	94.0773
3,137.7	111.173	3,137.7	110.92	3,137.7	111.081	3,137.7	110.585	3,137.7	110.806	3,137.7	109.72	3,137.7	110.007	3,137.7	108.345	3,137.7	108.803	3,137.7	107.008	3,137.7	107.92	3,137.7	105.079	3,137.7	106.232	3,137.7	102.801	3,137.7	104.307	3,137.7	100.634	3,137.7	102.145	3,137.7	98.6535	3,137.7	99.4706	3,137.7	96.6364	3,137.7	97.703	3,137.7	96.0933	3,137.7	95.8895	3,137.7	93.1822	3,137.7	93.4979	3,137.7	91.0779	3,137.7	91.7025	3,137.7	92.3966	3,137.7	89.4866	3,137.7	91.1473	3,137.7	93.8703	3,137.7	91.8217	3,137.7	90.3626	3,137.7	87.5243	3,137.7	90.0511	3,137.7	92.3365
3,249.02	111.135	3,249.02	110.88	3,249.02	111.182	3,249.02	110.583	3,249.02	110.415	3,249.02	109.733	3,249.02	109.916	3,249.02	108.697	3,249.02	108.529	3,249.02	107.42	3,249.02	107.606	3,249.02	105.774	3,249.02	106.385	3,249.02	103.712	3,249.02	104.215	3,249.02	101.032	3,249.02	102.481	3,249.02	98.9184	3,249.02	100.11	3,249.02	96.3369	3,249.02	97.936	3,249.02	95.7421	3,249.02	95.598	3,249.02	93.0221	3,249.02	94.201	3,249.02	91.5204	3,249.02	90.7568	3,249.02	91.8187	3,249.02	92.1971	3,249.02	89.5277	3,249.02	93.3225	3,249.02	90.1441	3,249.02	90.3907	3,249.02	87.6839	3,249.02	90.8648	3,249.02	91.3658
3,363.28	111.259	3,363.28	111.305	3,363.28	111.02	3,363.28	110.466	3,363.28	111.038	3,363.28	109.712	3,363.28	110.389	3,363.28	108.314	3,363.28	109.425	3,363.28	107.039	3,363.28	107.698	3,363.28	104.995	3,363.28	105.959	3,363.28	102.802	3,363.28	104	3,363.28	100.407	3,363.28	102.067	3,363.28	98.7798	3,363.28	99.1685	3,363.28	95.7477	3,363.28	97.0422	3,363.28	95.0713	3,363.28	94.6454	3,363.28	92.4279	3,363.28	93.3733	3,363.28	89.54	3,363.28	89.674	3,363.28	90.1283	3,363.28	90.6489	3,363.28	91.2382	3,363.28	94.1304	3,363.28	87.8489	3,363.28	89.1387	3,363.28	89.1123	3,363.28	90.227	3,363.28	93.268
3,481.93	111.266	3,481.93	111.365	3,481.93	111.143	3,481.93	111.046	3,481.93	110.797	3,481.93	110.319	3,481.93	110.117	3,481.93	109.168	3,481.93	109.23	3,481.93	107.827	3,481.93	107.843	3,481.93	105.756	3,481.93	105.927	3,481.93	103.456	3,481.93	103.382	3,481.93	101.284	3,481.93	101.284	3,481.93	98.7911	3,481.93	98.1096	3,481.93	95.8691	3,481.93	96.3282	3,481.93	95.2936	3,481.93	93.8749	3,481.93	93.0469	3,481.93	93.7815	3,481.93	90.3716	3,481.93	88.9593	3,481.93	89.6591	3,481.93	89.3963	3,481.93	91.1939	3,481.93	93.2362	3,481.93	88.8796	3,481.93	91.0055	3,481.93	82.3368	3,481.93	89.1546	3,481.93	93.1983
3,604.98	111.354	3,604.98	111.274	3,604.98	111.416	3,604.98	111.157	3,604.98	111.219	3,604.98	110.628	3,604.98	110.901	3,604.98	109.444	3,604.98	109.771	3,604.98	108.063	3,604.98	108.522	3,604.98	106.26	3,604.98	107.026	3,604.98	103.963	3,604.98	104.547	3,604.98	101.37	3,604.98	102.462	3,604.98	98.7587	3,604.98	99.9015	3,604.98	96.4652	3,604.98	98.5136	3,604.98	95.2086	3,604.98	96.0338	3,604.98	94.8592	3,604.98	96.1121	3,604.98	92.5177	3,604.98	90.0924	3,604.98	93.2939	3,604.98	92.5943	3,604.98	91.4985	3,604.98	93.7743	3,604.98	93.2976	3,604.98	93.1802	3,604.98	85.5824	3,604.98	91.8392	3,604.98	91.898
3,732.42	111.367	3,732.42	111.156	3,732.42	111.368	3,732.42	111.251	3,732.42	111.002	3,732.42	110.682	3,732.42	110.799	3,732.42	109.642	3,732.42	110.132	3,732.42	108.341	3,732.42	108.858	3,732.42	106.513	3,732.42	107.242	3,732.42	104.064	3,732.42	104.729	3,732.42	102.271	3,732.42	102.604	3,732.42	99.122	3,732.42	100.256	3,732.42	97.0925	3,732.42	98.6369	3,732.42	93.8919	3,732.42	96.8194	3,732.42	95.1333	3,732.42	95.4807	3,732.42	90.0674	3,732.42	92.8582	3,732.42	94.7586	3,732.42	91.8053	3,732.42	92.8629	3,732.42	94.1846	3,732.42	94.402	3,732.42	93.277	3,732.42	90.7184	3,732.42	92.7519	3,732.42	91.8063
3,864.26	109.633	3,864.26	110.153	3,864.26	109.587	3,864.26	109.816	3,864.26	110.017	3,864.26	109.629	3,864.26	109.699	3,864.26	108.807	3,864.26	109.336	3,864.26	107.509	3,864.26	108.077	3,864.26	105.787	3,864.26	106.251	3,864.26	103.669	3,864.26	103.477	3,864.26	101.937	3,864.26	101.49	3,864.26	99.683	3,864.26	99.2673	3,864.26	97.7216	3,864.26	97.1359	3,864.26	94.6195	3,864.26	95.349	3,864.26	93.164	3,864.26	93.6394	3,864.26	91.412	3,864.26	93.3074	3,864.26	92.4913	3,864.26	87.8165	3,864.26	93.7637	3,864.26	94.0706	3,864.26	93.6649	3,864.26	88.2167	3,864.26	90.7741	3,864.26	91.1462	3,864.26	91.5901
4,000.49	110.589	4,000.49	110.679	4,000.49	110.988	4,000.49	110.677	4,000.49	110.707	4,000.49	110.431	4,000.49	110.56	4,000.49	109.261	4,000.49	109.745	4,000.49	106.924	4,000.49	108.515	4,000.49	105.639	4,000.49	106.33	4,000.49	103.164	4,000.49	103.945	4,000.49	99.6218	4,000.49	101.66	4,000.49	97.9058	4,000.49	99.3342	4,000.49	96.461	4,000.49	97.8928	4,000.49	94.8854	4,000.49	96.6807	4,000.49	92.8461	4,000.49	94.1746	4,000.49	91.8772	4,000.49	93.1889	4,000.49	90.0399	4,000.49	87.9781	4,000.49	93.6766	4,000.49	94.2623	4,000.49	92.3711	4,000.49	90.0204	4,000.49	89.8354	4,000.49	91.2543	4,000.49	92.0255
4,141.11	111.134	4,141.11	110.887	4,141.11	110.972	4,141.11	111.219	4,141.11	110.644	4,141.11	110.701	4,141.11	110.269	4,141.11	109.864	4,141.11	109.578	4,141.11	108.118	4,141.11	108.153	4,141.11	106.306	4,141.11	105.767	4,141.11	104.224	4,141.11	103.473	4,141.11	102.124	4,141.11	101.482	4,141.11	99.2936	4,141.11	99.3967	4,141.11	96.3357	4,141.11	96.1659	4,141.11	93.8505	4,141.11	94.5082	4,141.11	93.6186	4,141.11	91.8914	4,141.11	89.187	4,141.11	92.472	4,141.11	90.0196	4,141.11	88.9109	4,141.11	93.3951	4,141.11	91.0166	4,141.11	92.3633	4,141.11	90.3812	4,141.11	89.7302	4,141.11	90.9852	4,141.11	90.1504
4,287.6	110.829	4,287.6	110.843	4,287.6	110.463	4,287.6	110.322	4,287.6	110.557	4,287.6	109.451	4,287.6	109.905	4,287.6	108.369	4,287.6	109.294	4,287.6	107.174	4,287.6	108.011	4,287.6	104.616	4,287.6	106.071	4,287.6	102.383	4,287.6	104.254	4,287.6	100.683	4,287.6	101.808	4,287.6	99.1043	4,287.6	99.113	4,287.6	97.2817	4,287.6	97.5858	4,287.6	94.3458	4,287.6	95.1283	4,287.6	93.3352	4,287.6	93.6708	4,287.6	92.52	4,287.6	91.8251	4,287.6	88.8815	4,287.6	87.6483	4,287.6	94.016	4,287.6	91.5201	4,287.6	91.73	4,287.6	87.829	4,287.6	90.9932	4,287.6	92.3324	4,287.6	88.7167
4,438.48	110.848	4,438.48	110.365	4,438.48	110.826	4,438.48	110.732	4,438.48	110.142	4,438.48	110.82	4,438.48	110.286	4,438.48	109.48	4,438.48	108.929	4,438.48	107.779	4,438.48	107.43	4,438.48	105.965	4,438.48	105.796	4,438.48	103.417	4,438.48	103.015	4,438.48	100.958	4,438.48	101.315	4,438.48	98.552	4,438.48	98.7315	4,438.48	95.9822	4,438.48	95.6591	4,438.48	94.0126	4,438.48	94.1955	4,438.48	91.7042	4,438.48	92.7609	4,438.48	88.745	4,438.48	90.2118	4,438.48	86.6827	4,438.48	88.727	4,438.48	92.177	4,438.48	87.519	4,438.48	89.524	4,438.48	90.1135	4,438.48	88.491	4,438.48	85.3466	4,438.48	87.52
4,595.21	111.124	4,595.21	111.06	4,595.21	110.748	4,595.21	111.071	4,595.21	111.067	4,595.21	110.258	4,595.21	110.634	4,595.21	109.138	4,595.21	109.886	4,595.21	107.8	4,595.21	108.783	4,595.21	105.72	4,595.21	106.639	4,595.21	103.3	4,595.21	104.346	4,595.21	100.954	4,595.21	101.929	4,595.21	99.4516	4,595.21	99.375	4,595.21	96.849	4,595.21	96.8212	4,595.21	93.609	4,595.21	95.2429	4,595.21	93.2814	4,595.21	92.9784	4,595.21	90.5849	4,595.21	90.2689	4,595.21	87.3957	4,595.21	90.9632	4,595.21	92.7448	4,595.21	88.8855	4,595.21	89.4831	4,595.21	88.1407	4,595.21	87.1082	4,595.21	89.4255	4,595.21	88.1072
4,756.35	111.067	4,756.35	110.966	4,756.35	111.078	4,756.35	110.936	4,756.35	110.652	4,756.35	110.497	4,756.35	110.229	4,756.35	109.193	4,756.35	109.233	4,756.35	108.045	4,756.35	107.55	4,756.35	106.369	4,756.35	106.308	4,756.35	104.056	4,756.35	104.423	4,756.35	100.978	4,756.35	101.581	4,756.35	98.1097	4,756.35	98.5934	4,756.35	95.8796	4,756.35	96.2466	4,756.35	93.8391	4,756.35	93.7175	4,756.35	91.2169	4,756.35	92.2985	4,756.35	89.9953	4,756.35	91.7827	4,756.35	87.3519	4,756.35	86.8735	4,756.35	90.9329	4,756.35	89.4813	4,756.35	90.19	4,756.35	91.3453	4,756.35	87.7455	4,756.35	87.4896	4,756.35	86.0979
4,924.8	109.865	4,924.8	110.197	4,924.8	109.957	4,924.8	109.916	4,924.8	109.966	4,924.8	109.366	4,924.8	109.727	4,924.8	108.569	4,924.8	108.75	4,924.8	107.295	4,924.8	108.108	4,924.8	105.415	4,924.8	106.021	4,924.8	103.014	4,924.8	103.223	4,924.8	101.176	4,924.8	100.507	4,924.8	98.622	4,924.8	98.1407	4,924.8	95.7152	4,924.8	96.3348	4,924.8	94.2764	4,924.8	93.9091	4,924.8	91.316	4,924.8	90.1558	4,924.8	89.5948	4,924.8	88.9529	4,924.8	85.7267	4,924.8	87.4937	4,924.8	90.0796	4,924.8	88.2659	4,924.8	90.1263	4,924.8	88.2658	4,924.8	85.5326	4,924.8	86.7102	4,924.8	87.7154
5,097.66	110.972	5,097.66	111.038	5,097.66	111.04	5,097.66	111.249	5,097.66	111.014	5,097.66	110.452	5,097.66	110.237	5,097.66	109.673	5,097.66	109.341	5,097.66	108.351	5,097.66	108.417	5,097.66	105.756	5,097.66	106.49	5,097.66	103.36	5,097.66	103.942	5,097.66	99.8975	5,097.66	101.343	5,097.66	97.1823	5,097.66	98.3513	5,097.66	94.9922	5,097.66	96.3474	5,097.66	93.0674	5,097.66	94.6774	5,097.66	88.3569	5,097.66	91.3622	5,097.66	89.8314	5,097.66	89.8062	5,097.66	85.455	5,097.66	83.907	5,097.66	89.7633	5,097.66	90.5667	5,097.66	88.9131	5,097.66	88.8828	5,097.66	83.2051	5,097.66	89.2291	5,097.66	84.6294
5,277.83	109.989	5,277.83	110.255	5,277.83	110.208	5,277.83	110.276	5,277.83	110.097	5,277.83	109.566	5,277.83	109.6	5,277.83	108.911	5,277.83	108.893	5,277.83	107.941	5,277.83	107.989	5,277.83	106.008	5,277.83	106.076	5,277.83	103.719	5,277.83	102.906	5,277.83	100.947	5,277.83	100.733	5,277.83	99.2902	5,277.83	98.426	5,277.83	96.6021	5,277.83	96.6048	5,277.83	95.0099	5,277.83	93.9927	5,277.83	92.7184	5,277.83	91.7961	5,277.83	90.3586	5,277.83	89.993	5,277.83	87.3878	5,277.83	85.5788	5,277.83	90.7399	5,277.83	88.0525	5,277.83	87.6414	5,277.83	87.8306	5,277.83	86.6402	5,277.83	89.9476	5,277.83	85.7041
5,463.87	110.242	5,463.87	110.871	5,463.87	110.594	5,463.87	110.681	5,463.87	110.578	5,463.87	109.833	5,463.87	109.647	5,463.87	109.281	5,463.87	109.14	5,463.87	107.705	5,463.87	108.151	5,463.87	105.459	5,463.87	105.727	5,463.87	102.113	5,463.87	103.267	5,463.87	99.1332	5,463.87	100.984	5,463.87	96.3943	5,463.87	98.5731	5,463.87	93.1077	5,463.87	94.9925	5,463.87	94.1875	5,463.87	93.0092	5,463.87	90.6053	5,463.87	89.665	5,463.87	88.3751	5,463.87	91.4372	5,463.87	85.0873	5,463.87	83.2003	5,463.87	90.249	5,463.87	86.9896	5,463.87	86.6918	5,463.87	88.3642	5,463.87	83.0549	5,463.87	86.1137	5,463.87	79.6317
5,657.23	110.331	5,657.23	110.688	5,657.23	110.678	5,657.23	110.669	5,657.23	110.62	5,657.23	110.231	5,657.23	110.159	5,657.23	109.295	5,657.23	109.618	5,657.23	108.28	5,657.23	108.342	5,657.23	106.296	5,657.23	106.267	5,657.23	104.069	5,657.23	103.805	5,657.23	101.741	5,657.23	101.421	5,657.23	98.6313	5,657.23	98.3196	5,657.23	96.3102	5,657.23	95.8543	5,657.23	93.1186	5,657.23	93.1762	5,657.23	90.949	5,657.23	91.9749	5,657.23	89.8639	5,657.23	88.743	5,657.23	84.5827	5,657.23	87.3318	5,657.23	86.7167	5,657.23	83.7129	5,657.23	86.4884	5,657.23	86.1871	5,657.23	85.9424	5,657.23	86.8423	5,657.23	78.2254
5,856.45	110.865	5,856.45	111.101	5,856.45	110.97	5,856.45	111.215	5,856.45	110.81	5,856.45	110.649	5,856.45	110.362	5,856.45	109.8	5,856.45	109.64	5,856.45	108.376	5,856.45	108.561	5,856.45	106.289	5,856.45	106.394	5,856.45	103.331	5,856.45	103.711	5,856.45	100.008	5,856.45	100.945	5,856.45	97.3202	5,856.45	98.3861	5,856.45	94.9202	5,856.45	95.9337	5,856.45	93.0539	5,856.45	93.4029	5,856.45	89.1733	5,856.45	90.5644	5,856.45	89.5643	5,856.45	90.5557	5,856.45	86.5234	5,856.45	88.7459	5,856.45	88.7517	5,856.45	83.617	5,856.45	84.8803	5,856.45	85.8729	5,856.45	86.2119	5,856.45	85.9126	5,856.45	77.6473
6,062.99	110.892	6,062.99	110.901	6,062.99	110.868	6,062.99	110.771	6,062.99	111.019	6,062.99	110.277	6,062.99	110.803	6,062.99	109.37	6,062.99	110.152	6,062.99	108.058	6,062.99	108.779	6,062.99	106.18	6,062.99	106.905	6,062.99	103.596	6,062.99	104.256	6,062.99	101.471	6,062.99	101.703	6,062.99	98.9964	6,062.99	98.8407	6,062.99	95.4856	6,062.99	95.751	6,062.99	92.7321	6,062.99	93.0522	6,062.99	91.6499	6,062.99	91.0104	6,062.99	89.3054	6,062.99	88.857	6,062.99	87.2902	6,062.99	86.5714	6,062.99	85.732	6,062.99	84.3052	6,062.99	84.7452	6,062.99	86.3395	6,062.99	84.3111	6,062.99	85.0618	6,062.99	82.3993
6,276.86	111.122	6,276.86	111.098	6,276.86	110.973	6,276.86	111.123	6,276.86	110.902	6,276.86	110.694	6,276.86	110.774	6,276.86	109.841	6,276.86	109.865	6,276.86	108.419	6,276.86	108.342	6,276.86	106.833	6,276.86	106.656	6,276.86	103.275	6,276.86	104.484	6,276.86	100.48	6,276.86	101.464	6,276.86	97.3631	6,276.86	98.0945	6,276.86	94.9469	6,276.86	95.2784	6,276.86	92.2623	6,276.86	92.704	6,276.86	90.6076	6,276.86	90.8929	6,276.86	89.6389	6,276.86	89.8142	6,276.86	87.4535	6,276.86	87.3949	6,276.86	86.6832	6,276.86	86.681	6,276.86	85.02	6,276.86	88.1477	6,276.86	82.0662	6,276.86	81.184	6,276.86	83.4681
6,498.05	110.923	6,498.05	110.872	6,498.05	110.788	6,498.05	110.79	6,498.05	110.721	6,498.05	110.352	6,498.05	110.552	6,498.05	109.072	6,498.05	109.424	6,498.05	107.759	6,498.05	108.187	6,498.05	105.736	6,498.05	106.65	6,498.05	102.901	6,498.05	103.978	6,498.05	99.3936	6,498.05	100.608	6,498.05	96.6449	6,498.05	97.3413	6,498.05	95.0867	6,498.05	94.2147	6,498.05	92.1678	6,498.05	91.6431	6,498.05	89.9354	6,498.05	90.7526	6,498.05	89.17	6,498.05	88.3851	6,498.05	88.1621	6,498.05	87.5305	6,498.05	85.6654	6,498.05	85.7044	6,498.05	85.8229	6,498.05	85.4671	6,498.05	77.8709	6,498.05	85.5973	6,498.05	82.8197
6,726.56	111.267	6,726.56	110.984	6,726.56	111.147	6,726.56	111.242	6,726.56	111.029	6,726.56	110.818	6,726.56	110.712	6,726.56	109.619	6,726.56	109.619	6,726.56	108.605	6,726.56	108.702	6,726.56	106.482	6,726.56	106.747	6,726.56	103.195	6,726.56	103.408	6,726.56	99.7433	6,726.56	100.159	6,726.56	96.7494	6,726.56	97.1424	6,726.56	94.9372	6,726.56	94.4715	6,726.56	91.268	6,726.56	92.0241	6,726.56	89.0142	6,726.56	90.322	6,726.56	87.8153	6,726.56	87.898	6,726.56	88.3898	6,726.56	87.216	6,726.56	85.3121	6,726.56	84.684	6,726.56	85.7963	6,726.56	84.9314	6,726.56	80.4913	6,726.56	86.8483	6,726.56	82.68
6,963.87	110.918	6,963.87	110.279	6,963.87	110.624	6,963.87	110.697	6,963.87	110.636	6,963.87	109.816	6,963.87	110.485	6,963.87	108.765	6,963.87	109.383	6,963.87	107.189	6,963.87	108.271	6,963.87	104.833	6,963.87	105.988	6,963.87	101.578	6,963.87	102.615	6,963.87	98.6612	6,963.87	99.2999	6,963.87	96.3087	6,963.87	96.6308	6,963.87	93.505	6,963.87	94.3512	6,963.87	91.8424	6,963.87	91.8699	6,963.87	89.5445	6,963.87	88.5152	6,963.87	88.2664	6,963.87	86.2358	6,963.87	87.6768	6,963.87	85.9603	6,963.87	84.9986	6,963.87	83.0036	6,963.87	84.7505	6,963.87	85.7565	6,963.87	80.1384	6,963.87	85.9924	6,963.87	77.363
7,209.96	110.877	7,209.96	110.559	7,209.96	110.566	7,209.96	111.082	7,209.96	110.991	7,209.96	110.427	7,209.96	110.856	7,209.96	109.404	7,209.96	109.734	7,209.96	107.882	7,209.96	108.392	7,209.96	105.862	7,209.96	105.96	7,209.96	102.235	7,209.96	102.839	7,209.96	98.9578	7,209.96	99.8618	7,209.96	95.7564	7,209.96	96.3163	7,209.96	93.8328	7,209.96	93.5299	7,209.96	89.9656	7,209.96	91.9066	7,209.96	89.4559	7,209.96	88.6339	7,209.96	86.2678	7,209.96	86.9985	7,209.96	86.2217	7,209.96	85.8892	7,209.96	83.2377	7,209.96	83.8276	7,209.96	83.8003	7,209.96	84.5246	7,209.96	80.8855	7,209.96	83.3909	7,209.96	80.7487
7,464.84	110.436	7,464.84	110.262	7,464.84	109.934	7,464.84	110.749	7,464.84	110.087	7,464.84	110.324	7,464.84	109.898	7,464.84	109.12	7,464.84	108.99	7,464.84	107.262	7,464.84	107.543	7,464.84	104.511	7,464.84	104.969	7,464.84	102.02	7,464.84	102.113	7,464.84	98.2691	7,464.84	99.0534	7,464.84	94.9643	7,464.84	96.0791	7,464.84	92.3692	7,464.84	92.4015	7,464.84	89.7812	7,464.84	90.8252	7,464.84	87.1039	7,464.84	88.7646	7,464.84	85.8687	7,464.84	86.2783	7,464.84	84.678	7,464.84	84.042	7,464.84	81.5958	7,464.84	81.6761	7,464.84	82.1606	7,464.84	82.0279	7,464.84	76.962	7,464.84	82.2162	7,464.84	81.7999
7,727.05	110.915	7,727.05	110.493	7,727.05	110.626	7,727.05	110.991	7,727.05	110.816	7,727.05	110.169	7,727.05	110.143	7,727.05	109.039	7,727.05	109.381	7,727.05	106.914	7,727.05	107.717	7,727.05	104.494	7,727.05	105.105	7,727.05	101.305	7,727.05	102.495	7,727.05	98.8885	7,727.05	99.4227	7,727.05	95.6329	7,727.05	96.6261	7,727.05	91.3195	7,727.05	93.3603	7,727.05	90.9172	7,727.05	90.591	7,727.05	88.3778	7,727.05	88.604	7,727.05	87.3771	7,727.05	86.0933	7,727.05	82.9012	7,727.05	85.3915	7,727.05	80.3766	7,727.05	80.6562	7,727.05	79.9891	7,727.05	81.5828	7,727.05	76.4047	7,727.05	84.04	7,727.05	75.2656
7,999.51	110.732	7,999.51	110.446	7,999.51	110.545	7,999.51	110.658	7,999.51	110.702	7,999.51	109.577	7,999.51	110.06	7,999.51	108.57	7,999.51	109.38	7,999.51	106.345	7,999.51	107.248	7,999.51	104.079	7,999.51	105.089	7,999.51	100.428	7,999.51	102.097	7,999.51	97.1669	7,999.51	98.9255	7,999.51	94.9183	7,999.51	95.3756	7,999.51	91.4003	7,999.51	91.5209	7,999.51	89.5583	7,999.51	89.1514	7,999.51	88.3771	7,999.51	86.3604	7,999.51	87.024	7,999.51	86.0687	7,999.51	82.9205	7,999.51	82.7536	7,999.51	76.8973	7,999.51	81.1368	7,999.51	78.6574	7,999.51	82.3001	7,999.51	82.2291	7,999.51	81.6995	7,999.51	76.6454
8,282.23	110.966	8,282.23	110.664	8,282.23	110.897	8,282.23	110.435	8,282.23	110.819	8,282.23	109.853	8,282.23	110.301	8,282.23	108.782	8,282.23	109.469	8,282.23	106.741	8,282.23	107.704	8,282.23	104.186	8,282.23	105.534	8,282.23	101.019	8,282.23	102.79	8,282.23	97.7438	8,282.23	98.8305	8,282.23	94.4742	8,282.23	95.6804	8,282.23	90.0579	8,282.23	92.5371	8,282.23	89.3605	8,282.23	89.775	8,282.23	87.6737	8,282.23	88.6338	8,282.23	86.7194	8,282.23	87.0491	8,282.23	82.9953	8,282.23	83.4661	8,282.23	73.4917	8,282.23	78.248	8,282.23	79.8962	8,282.23	80.9998	8,282.23	81.4622	8,282.23	78.9168	8,282.23	80.3238
8,573.73	111.236	8,573.73	110.927	8,573.73	111.163	8,573.73	110.49	8,573.73	110.888	8,573.73	109.851	8,573.73	110.367	8,573.73	108.353	8,573.73	109.558	8,573.73	106.645	8,573.73	107.997	8,573.73	103.764	8,573.73	105.729	8,573.73	100.204	8,573.73	102.142	8,573.73	97.1288	8,573.73	98.1952	8,573.73	93.894	8,573.73	96.3798	8,573.73	89.9527	8,573.73	92.7845	8,573.73	89.1598	8,573.73	90.0373	8,573.73	87.1561	8,573.73	88.3026	8,573.73	82.9454	8,573.73	86.2382	8,573.73	82.3019	8,573.73	81.7878	8,573.73	77.5589	8,573.73	73.5974	8,573.73	79.0028	8,573.73	77.4086	8,573.73	78.8978	8,573.73	82.3325	8,573.73	75.3207
8,876.95	110.962	8,876.95	110.853	8,876.95	111.001	8,876.95	110.514	8,876.95	110.57	8,876.95	109.693	8,876.95	110.266	8,876.95	108.151	8,876.95	109.122	8,876.95	106.275	8,876.95	107.511	8,876.95	103.409	8,876.95	104.592	8,876.95	99.3829	8,876.95	101.631	8,876.95	96.3612	8,876.95	98.1286	8,876.95	93.64	8,876.95	94.9503	8,876.95	90.09	8,876.95	91.6672	8,876.95	86.8717	8,876.95	89.2827	8,876.95	87.9144	8,876.95	86.7174	8,876.95	82.4887	8,876.95	85.9231	8,876.95	79.1783	8,876.95	76.8978	8,876.95	74.451	8,876.95	71.3367	8,876.95	78.9145	8,876.95	76.5506	8,876.95	79.5218	8,876.95	79.7487	8,876.95	80.2631
9,188.96	111.501	9,188.96	111.238	9,188.96	111.568	9,188.96	110.745	9,188.96	111.04	9,188.96	110.067	9,188.96	110.571	9,188.96	108.587	9,188.96	109.364	9,188.96	106.871	9,188.96	108.038	9,188.96	103.069	9,188.96	104.869	9,188.96	100.084	9,188.96	102.331	9,188.96	96.5617	9,188.96	98.7678	9,188.96	93.1533	9,188.96	95.3743	9,188.96	89.817	9,188.96	91.2257	9,188.96	87.6284	9,188.96	89.4528	9,188.96	86.2754	9,188.96	86.6157	9,188.96	82.5613	9,188.96	84.5367	9,188.96	77.835	9,188.96	78.1342	9,188.96	76.3895	9,188.96	67.3373	9,188.96	78.9989	9,188.96	73.1071	9,188.96	74.7768	9,188.96	79.554	9,188.96	74.349
9,514.16	111.257	9,514.16	111.058	9,514.16	111.193	9,514.16	110.59	9,514.16	110.886	9,514.16	109.69	9,514.16	110.316	9,514.16	108.056	9,514.16	109.274	9,514.16	105.947	9,514.16	107.731	9,514.16	103.072	9,514.16	104.452	9,514.16	100.065	9,514.16	101.987	9,514.16	96.7197	9,514.16	97.6977	9,514.16	93.272	9,514.16	95.131	9,514.16	89.1474	9,514.16	91.0838	9,514.16	87.4585	9,514.16	89.1213	9,514.16	87.1653	9,514.16	85.4023	9,514.16	79.3041	9,514.16	84.3513	9,514.16	78.3527	9,514.16	71.9562	9,514.16	74.5083	9,514.16	73.1844	9,514.16	77.5613	9,514.16	69.7294	9,514.16	79.5331	9,514.16	83.0224	9,514.16	76.9531
9,849.61	111.072	9,849.61	110.779	9,849.61	111.093	9,849.61	110.354	9,849.61	110.563	9,849.61	109.753	9,849.61	109.962	9,849.61	108.322	9,849.61	109.058	9,849.61	106.038	9,849.61	107.408	9,849.61	103.423	9,849.61	104.516	9,849.61	99.3234	9,849.61	101.734	9,849.61	95.7205	9,849.61	97.6972	9,849.61	91.7763	9,849.61	93.153	9,849.61	88.7	9,849.61	90.7968	9,849.61	86.3999	9,849.61	88.4421	9,849.61	85.3192	9,849.61	83.8729	9,849.61	81.2742	9,849.61	83.9266	9,849.61	73.8768	9,849.61	72.3951	9,849.61	73.1977	9,849.61	71.5114	9,849.61	79.2462	9,849.61	73.8057	9,849.61	81.6664	9,849.61	77.6846	9,849.61	84.3592
10,196.8	110.423	10,196.8	110.188	10,196.8	110.464	10,196.8	109.723	10,196.8	110.144	10,196.8	109.17	10,196.8	109.801	10,196.8	108.146	10,196.8	109.11	10,196.8	105.712	10,196.8	107.112	10,196.8	102.891	10,196.8	104.602	10,196.8	99.2847	10,196.8	101.318	10,196.8	95.2399	10,196.8	97.6229	10,196.8	91.7219	10,196.8	93.8322	10,196.8	88.7683	10,196.8	90.2083	10,196.8	87.3997	10,196.8	88.3242	10,196.8	85.4435	10,196.8	84.6339	10,196.8	80.9056	10,196.8	83.8169	10,196.8	76.2667	10,196.8	75.6637	10,196.8	77.9276	10,196.8	54.9979	10,196.8	81.2919	10,196.8	69.3213	10,196.8	79.2159	10,196.8	75.9217	10,196.8	85.2045
10,555.7	109.693	10,555.7	109.352	10,555.7	109.592	10,555.7	109.122	10,555.7	109.472	10,555.7	108.641	10,555.7	109.327	10,555.7	107.095	10,555.7	108.669	10,555.7	105.107	10,555.7	107.031	10,555.7	102.519	10,555.7	104.63	10,555.7	98.4981	10,555.7	100.683	10,555.7	94.1307	10,555.7	97.0311	10,555.7	91.6184	10,555.7	93.9681	10,555.7	89.6187	10,555.7	90.6237	10,555.7	86.2085	10,555.7	87.9202	10,555.7	84.7063	10,555.7	84.869	10,555.7	79.7776	10,555.7	83.3284	10,555.7	76.1509	10,555.7	73.2976	10,555.7	79.9205	10,555.7	75.2887	10,555.7	82.7589	10,555.7	50.2136	10,555.7	79.4109	10,555.7	74.3699	10,555.7	87.6135
10,927.7	109.372	10,927.7	108.879	10,927.7	109.245	10,927.7	108.668	10,927.7	109.203	10,927.7	108.224	10,927.7	109.161	10,927.7	107.182	10,927.7	108.554	10,927.7	105.064	10,927.7	107.056	10,927.7	101.929	10,927.7	104.116	10,927.7	98.3362	10,927.7	100.614	10,927.7	95.3208	10,927.7	97.5263	10,927.7	91.3557	10,927.7	93.6452	10,927.7	88.5298	10,927.7	90.3629	10,927.7	86.8705	10,927.7	87.4611	10,927.7	82.736	10,927.7	83.1262	10,927.7	78.5544	10,927.7	82.242	10,927.7	73.8137	10,927.7	71.2994	10,927.7	80.5194	10,927.7	76.1706	10,927.7	83.4671	10,927.7	65.8702	10,927.7	75.8132	10,927.7	77.971	10,927.7	86.8382
11,313	108.932	11,313	108.698	11,313	108.954	11,313	108.541	11,313	109.112	11,313	108.043	11,313	109.161	11,313	106.908	11,313	108.704	11,313	104.976	11,313	107.177	11,313	101.859	11,313	103.788	11,313	98.2924	11,313	100.432	11,313	95.2396	11,313	96.9428	11,313	91.6419	11,313	93.2664	11,313	87.852	11,313	90.1964	11,313	86.1677	11,313	88.0915	11,313	83.0202	11,313	83.5212	11,313	80.3875	11,313	82.6443	11,313	70.1939	11,313	68.9889	11,313	79.7068	11,313	79.1196	11,313	82.2227	11,313	69.5058	11,313	70.4377	11,313	70.1361	11,313	85.7773
11,712.9	109.167	11,712.9	108.733	11,712.9	108.991	11,712.9	108.561	11,712.9	109.091	11,712.9	108.103	11,712.9	108.974	11,712.9	107.012	11,712.9	108.753	11,712.9	104.805	11,712.9	107.133	11,712.9	102.119	11,712.9	103.615	11,712.9	97.8327	11,712.9	100.198	11,712.9	94.0371	11,712.9	96.6574	11,712.9	90.5774	11,712.9	92.6811	11,712.9	88.1612	11,712.9	89.8937	11,712.9	85.1616	11,712.9	86.9448	11,712.9	83.0882	11,712.9	82.735	11,712.9	79.8241	11,712.9	81.4063	11,712.9	75.3475	11,712.9	72.3431	11,712.9	79.6931	11,712.9	79.6223	11,712.9	82.8929	11,712.9	71.1212	11,712.9	71.7059	11,712.9	67.01	11,712.9	86.8277
12,126	109.186	12,126	108.573	12,126	108.931	12,126	108.323	12,126	108.825	12,126	108.236	12,126	108.917	12,126	107.069	12,126	108.58	12,126	105.065	12,126	106.838	12,126	101.668	12,126	103.397	12,126	97.112	12,126	99.6204	12,126	93.4865	12,126	96.1865	12,126	90.8313	12,126	92.5014	12,126	87.6902	12,126	89.7069	12,126	85.4019	12,126	86.7681	12,126	81.2834	12,126	82.7042	12,126	78.72	12,126	80.6856	12,126	75.5007	12,126	74.3265	12,126	79.7283	12,126	78.9572	12,126	82.2171	12,126	71.2146	12,126	59.1186	12,126	59.9114	12,126	85.6653
12,553.7	109.086	12,553.7	108.462	12,553.7	108.785	12,553.7	108.506	12,553.7	108.45	12,553.7	108.281	12,553.7	108.404	12,553.7	107.147	12,553.7	108.4	12,553.7	105.058	12,553.7	106.893	12,553.7	101.714	12,553.7	103.182	12,553.7	97.6443	12,553.7	99.6592	12,553.7	93.7938	12,553.7	96.0154	12,553.7	90.1746	12,553.7	91.7741	12,553.7	87.4538	12,553.7	89.6016	12,553.7	85.2176	12,553.7	86.0035	12,553.7	81.6045	12,553.7	80.4236	12,553.7	77.6521	12,553.7	80.4315	12,553.7	73.5263	12,553.7	75.7499	12,553.7	80.1737	12,553.7	78.4634	12,553.7	81.2707	12,553.7	70.5872	12,553.7	74.2984	12,553.7	72.5466	12,553.7	84.8432
12,996.1	108.981	12,996.1	108.579	12,996.1	108.724	12,996.1	108.406	12,996.1	108.48	12,996.1	108.176	12,996.1	108.364	12,996.1	107.27	12,996.1	108.298	12,996.1	104.972	12,996.1	106.557	12,996.1	101.55	12,996.1	102.848	12,996.1	97.3758	12,996.1	99.0765	12,996.1	93.975	12,996.1	95.4347	12,996.1	89.5435	12,996.1	91.4535	12,996.1	87.9903	12,996.1	89.8383	12,996.1	84.1195	12,996.1	86.7101	12,996.1	82.2106	12,996.1	77.2965	12,996.1	76.7682	12,996.1	74.9517	12,996.1	70.9326	12,996.1	73.5982	12,996.1	79.8065	12,996.1	78.8557	12,996.1	76.8018	12,996.1	73.8658	12,996.1	75.9436	12,996.1	68.4931	12,996.1	83.4193
13,454.6	109.367	13,454.6	108.988	13,454.6	109.038	13,454.6	108.708	13,454.6	108.352	13,454.6	108.334	13,454.6	108.107	13,454.6	107.308	13,454.6	107.804	13,454.6	104.693	13,454.6	106.147	13,454.6	101.335	13,454.6	102.728	13,454.6	97.1056	13,454.6	98.8645	13,454.6	94.2589	13,454.6	95.928	13,454.6	89.0017	13,454.6	91.666	13,454.6	87.1557	13,454.6	89.2755	13,454.6	81.3545	13,454.6	86.7466	13,454.6	81.1593	13,454.6	77.273	13,454.6	73.8898	13,454.6	72.9562	13,454.6	69.3914	13,454.6	70.8997	13,454.6	79.6249	13,454.6	77.9644	13,454.6	77.5392	13,454.6	71.6527	13,454.6	72.7117	13,454.6	75.1239	13,454.6	78.7979
13,929.2	109.972	13,929.2	109.395	13,929.2	109.669	13,929.2	109.116	13,929.2	108.787	13,929.2	108.601	13,929.2	108.002	13,929.2	107.186	13,929.2	107.665	13,929.2	104.473	13,929.2	105.937	13,929.2	100.928	13,929.2	102.578	13,929.2	96.4164	13,929.2	98.9373	13,929.2	93.1012	13,929.2	95.7278	13,929.2	88.5259	13,929.2	91.898	13,929.2	86.2576	13,929.2	89.3184	13,929.2	80.5839	13,929.2	86.3256	13,929.2	77.7585	13,929.2	75.994	13,929.2	75.1799	13,929.2	73.9269	13,929.2	68.8152	13,929.2	71.3435	13,929.2	81.0452	13,929.2	77.763	13,929.2	78.3307	13,929.2	64.6612	13,929.2	69.6466	13,929.2	76.9122	13,929.2	75.2826
14,419.9	111.278	14,419.9	110.69	14,419.9	110.684	14,419.9	109.718	14,419.9	109.678	14,419.9	108.479	14,419.9	108.331	14,419.9	106.851	14,419.9	108.034	14,419.9	104.243	14,419.9	106.204	14,419.9	100.25	14,419.9	102.906	14,419.9	95.4478	14,419.9	98.9831	14,419.9	92.352	14,419.9	95.4673	14,419.9	87.8476	14,419.9	92.2137	14,419.9	84.4234	14,419.9	89.7441	14,419.9	79.9939	14,419.9	85.8514	14,419.9	77.1836	14,419.9	74.998	14,419.9	74.8463	14,419.9	76.6739	14,419.9	67.4451	14,419.9	71.5979	14,419.9	80.4892	14,419.9	73.4006	14,419.9	80.4077	14,419.9	64.596	14,419.9	63.434	14,419.9	77.0794	14,419.9	68.9891
14,928.2	112.814	14,928.2	111.886	14,928.2	112.328	14,928.2	110.274	14,928.2	110.888	14,928.2	108.597	14,928.2	108.955	14,928.2	106.536	14,928.2	108.202	14,928.2	103.574	14,928.2	106.717	14,928.2	99.3616	14,928.2	103.149	14,928.2	94.1143	14,928.2	99.555	14,928.2	91.1892	14,928.2	95.8246	14,928.2	86.6999	14,928.2	91.8334	14,928.2	84.5668	14,928.2	89.9667	14,928.2	79.4051	14,928.2	85.4865	14,928.2	73.9015	14,928.2	74.3021	14,928.2	68.7116	14,928.2	75.0154	14,928.2	64.7644	14,928.2	72.5559	14,928.2	77.8677	14,928.2	61.0892	14,928.2	80.1639	14,928.2	72.2137	14,928.2	57.9755	14,928.2	78.6045	14,928.2	74.1839
15,455.6	114.232	15,455.6	113.022	15,455.6	113.699	15,455.6	110.984	15,455.6	111.86	15,455.6	108.314	15,455.6	109.161	15,455.6	105.593	15,455.6	107.831	15,455.6	102.585	15,455.6	106.625	15,455.6	98.5604	15,455.6	103.131	15,455.6	92.9137	15,455.6	99.76	15,455.6	88.5283	15,455.6	95.214	15,455.6	84.8248	15,455.6	91.7576	15,455.6	82.5983	15,455.6	88.6297	15,455.6	75.5406	15,455.6	84.4972	15,455.6	69.2936	15,455.6	72.3982	15,455.6	67.7787	15,455.6	70.062	15,455.6	58.7884	15,455.6	71.3843	15,455.6	74.5895	15,455.6	71.1119	15,455.6	79.4477	15,455.6	76.8346	15,455.6	64.1535	15,455.6	76.3673	15,455.6	79.666
16,000.5	114.87	16,000.5	113.514	16,000.5	114.328	16,000.5	110.971	16,000.5	112.23	16,000.5	107.374	16,000.5	108.793	16,000.5	103.978	16,000.5	106.854	16,000.5	101.082	16,000.5	105.182	16,000.5	96.8046	16,000.5	101.967	16,000.5	90.7301	16,000.5	98.7575	16,000.5	85.7629	16,000.5	93.9825	16,000.5	82.2103	16,000.5	90.4901	16,000.5	79.9023	16,000.5	86.6277	16,000.5	71.6781	16,000.5	82.5069	16,000.5	66.9451	16,000.5	71.8895	16,000.5	62.4483	16,000.5	69.4365	16,000.5	67.0805	16,000.5	72.2467	16,000.5	70.5932	16,000.5	74.0179	16,000.5	77.708	16,000.5	77.7866	16,000.5	55.6702	16,000.5	62.9346	16,000.5	79.2281
16,564.5	114.929	16,564.5	113.306	16,564.5	114.535	16,564.5	110.449	16,564.5	112.468	16,564.5	105.885	16,564.5	108.436	16,564.5	101.362	16,564.5	104.861	16,564.5	98.6551	16,564.5	102.816	16,564.5	95.0858	16,564.5	99.7019	16,564.5	89.1513	16,564.5	96.4387	16,564.5	84.1762	16,564.5	90.9077	16,564.5	80.5954	16,564.5	87.803	16,564.5	78.3092	16,564.5	83.4192	16,564.5	66.9903	16,564.5	79.2217	16,564.5	66.754	16,564.5	70.6982	16,564.5	60.0321	16,564.5	64.6934	16,564.5	60.8142	16,564.5	70.4589	16,564.5	65.6791	16,564.5	74.3936	16,564.5	75.4939	16,564.5	76.426	16,564.5	66.9208	16,564.5	70.7982	16,564.5	76.8497
17,148.9	114.262	17,148.9	112.633	17,148.9	113.996	17,148.9	109.546	17,148.9	112.091	17,148.9	104.113	17,148.9	107.917	17,148.9	97.8541	17,148.9	103.059	17,148.9	96.0378	17,148.9	100.006	17,148.9	93.4716	17,148.9	96.9632	17,148.9	88.8803	17,148.9	93.5237	17,148.9	84.5298	17,148.9	87.9162	17,148.9	80.5635	17,148.9	85.0237	17,148.9	77.5031	17,148.9	80.4138	17,148.9	65.4047	17,148.9	76.7819	17,148.9	65.4075	17,148.9	68.8198	17,148.9	63.5124	17,148.9	63.0852	17,148.9	58.0059	17,148.9	69.7858	17,148.9	65.0915	17,148.9	72.643	17,148.9	73.5807	17,148.9	71.7321	17,148.9	68.2153	17,148.9	70.7562	17,148.9	71.9496
17,752.4	113.301	17,752.4	111.512	17,752.4	113.212	17,752.4	108.164	17,752.4	111.631	17,752.4	101.958	17,752.4	107.588	17,752.4	92.5721	17,752.4	102.006	17,752.4	93.9421	17,752.4	97.1764	17,752.4	92.5607	17,752.4	94.0203	17,752.4	89.2574	17,752.4	90.7801	17,752.4	84.557	17,752.4	85.1643	17,752.4	80.7296	17,752.4	82.8583	17,752.4	77.0479	17,752.4	76.9865	17,752.4	68.2747	17,752.4	73.8223	17,752.4	66.6359	17,752.4	66.9922	17,752.4	68.1434	17,752.4	56.2796	17,752.4	62.4194	17,752.4	66.1019	17,752.4	60.9577	17,752.4	69.7089	17,752.4	70.6784	17,752.4	56.5687	17,752.4	63.8295	17,752.4	74.5518	17,752.4	72.7703
18,379.4	112.225	18,379.4	110.27	18,379.4	112.31	18,379.4	106.833	18,379.4	110.974	18,379.4	100.364	18,379.4	107.341	18,379.4	86.7459	18,379.4	101.656	18,379.4	92.5149	18,379.4	95.4489	18,379.4	92.478	18,379.4	91.7349	18,379.4	89.3678	18,379.4	88.8287	18,379.4	84.5541	18,379.4	83.1952	18,379.4	81.4622	18,379.4	80.6894	18,379.4	77.2489	18,379.4	75.1424	18,379.4	71.2703	18,379.4	71.9957	18,379.4	64.0825	18,379.4	66.4076	18,379.4	68.1537	18,379.4	59.1122	18,379.4	61.4999	18,379.4	66.0352	18,379.4	58.4481	18,379.4	63.5276	18,379.4	70.6902	18,379.4	62.9089	18,379.4	63.6045	18,379.4	73.8033	18,379.4	68.6045
19,026.9	111.439	19,026.9	109.399	19,026.9	111.497	19,026.9	105.947	19,026.9	110.226	19,026.9	99.5289	19,026.9	106.742	19,026.9	84.6849	19,026.9	101.078	19,026.9	91.5135	19,026.9	94.7531	19,026.9	91.746	19,026.9	90.8276	19,026.9	88.3675	19,026.9	87.4316	19,026.9	84.2709	19,026.9	81.1726	19,026.9	80.4527	19,026.9	79.0339	19,026.9	76.3711	19,026.9	73.3346	19,026.9	71.6673	19,026.9	70.1008	19,026.9	63.6455	19,026.9	65.4707	19,026.9	65.0858	19,026.9	59.8236	19,026.9	63.5399	19,026.9	66.6148	19,026.9	65.1383	19,026.9	63.6011	19,026.9	72.9101	19,026.9	67.7872	19,026.9	64.821	19,026.9	71.6962	19,026.9	65.8062
19,697.8	110.959	19,697.8	108.808	19,697.8	110.868	19,697.8	104.982	19,697.8	109.331	19,697.8	98.4927	19,697.8	105.711	19,697.8	86.3371	19,697.8	100.285	19,697.8	90.6731	19,697.8	94.8664	19,697.8	90.5208	19,697.8	90.5589	19,697.8	87.1486	19,697.8	86.7	19,697.8	82.8719	19,697.8	79.4183	19,697.8	79.2137	19,697.8	78.593	19,697.8	75.1024	19,697.8	72.1892	19,697.8	70.7204	19,697.8	67.6351	19,697.8	63.3789	19,697.8	65.0198	19,697.8	61.081	19,697.8	58.0196	19,697.8	58.8287	19,697.8	67.8517	19,697.8	67.5136	19,697.8	64.9861	19,697.8	75.4016	19,697.8	66.5528	19,697.8	64.3481	19,697.8	65.6523	19,697.8	68.105
19,999.5	110.746	19,999.5	108.651	19,999.5	110.621	19,999.5	104.475	19,999.5	108.868	19,999.5	97.6433	19,999.5	105.062	19,999.5	88.1785	19,999.5	99.9307	19,999.5	90.6292	19,999.5	94.9174	19,999.5	88.7746	19,999.5	91.1467	19,999.5	86.6329	19,999.5	86.295	19,999.5	79.124	19,999.5	79.0233	19,999.5	78.6603	19,999.5	75.0399	19,999.5	74.1321	19,999.5	72.4946	19,999.5	67.3681	19,999.5	73.2853	19,999.5	58.6936	19,999.5	60.7202	19,999.5	52.4254	19,999.5	73.4725	19,999.5	60.5379	19,999.5	68.92	19,999.5	68.29	19,999.5	68.4362	19,999.5	72.4585	19,999.5	61.0379	19,999.5	62.8337	19,999.5	68.0837	19,999.5	56.4429
