"SPL Vertical"
"On-Axis"		"10°"		"-10°"		"20°"		"-20°"		"30°"		"-30°"		"40°"		"-40°"		"50°"		"-50°"		"60°"		"-60°"		"70°"		"-70°"		"80°"		"-80°"		"90°"		"-90°"		"100°"		"-100°"		"110°"		"-110°"		"120°"		"-120°"		"130°"		"-130°"		"140°"		"-140°"		"150°"		"-150°"		"160°"		"-160°"		"170°"		"-170°"		"180°"
"Frequency [Hz]"	"Sound Pessure Level [dB]  / [2.83V 1m] "	"Frequency [Hz]"	"Sound Pessure Level [dB]  / [2.83V 1m] "	"Frequency [Hz]"	"Sound Pessure Level [dB]  / [2.83V 1m] "	"Frequency [Hz]"	"Sound Pessure Level [dB]  / [2.83V 1m] "	"Frequency [Hz]"	"Sound Pessure Level [dB]  / [2.83V 1m] "	"Frequency [Hz]"	"Sound Pessure Level [dB]  / [2.83V 1m] "	"Frequency [Hz]"	"Sound Pessure Level [dB]  / [2.83V 1m] "	"Frequency [Hz]"	"Sound Pessure Level [dB]  / [2.83V 1m] "	"Frequency [Hz]"	"Sound Pessure Level [dB]  / [2.83V 1m] "	"Frequency [Hz]"	"Sound Pessure Level [dB]  / [2.83V 1m] "	"Frequency [Hz]"	"Sound Pessure Level [dB]  / [2.83V 1m] "	"Frequency [Hz]"	"Sound Pessure Level [dB]  / [2.83V 1m] "	"Frequency [Hz]"	"Sound Pessure Level [dB]  / [2.83V 1m] "	"Frequency [Hz]"	"Sound Pessure Level [dB]  / [2.83V 1m] "	"Frequency [Hz]"	"Sound Pessure Level [dB]  / [2.83V 1m] "	"Frequency [Hz]"	"Sound Pessure Level [dB]  / [2.83V 1m] "	"Frequency [Hz]"	"Sound Pessure Level [dB]  / [2.83V 1m] "	"Frequency [Hz]"	"Sound Pessure Level [dB]  / [2.83V 1m] "	"Frequency [Hz]"	"Sound Pessure Level [dB]  / [2.83V 1m] "	"Frequency [Hz]"	"Sound Pessure Level [dB]  / [2.83V 1m] "	"Frequency [Hz]"	"Sound Pessure Level [dB]  / [2.83V 1m] "	"Frequency [Hz]"	"Sound Pessure Level [dB]  / [2.83V 1m] "	"Frequency [Hz]"	"Sound Pessure Level [dB]  / [2.83V 1m] "	"Frequency [Hz]"	"Sound Pessure Level [dB]  / [2.83V 1m] "	"Frequency [Hz]"	"Sound Pessure Level [dB]  / [2.83V 1m] "	"Frequency [Hz]"	"Sound Pessure Level [dB]  / [2.83V 1m] "	"Frequency [Hz]"	"Sound Pessure Level [dB]  / [2.83V 1m] "	"Frequency [Hz]"	"Sound Pessure Level [dB]  / [2.83V 1m] "	"Frequency [Hz]"	"Sound Pessure Level [dB]  / [2.83V 1m] "	"Frequency [Hz]"	"Sound Pessure Level [dB]  / [2.83V 1m] "	"Frequency [Hz]"	"Sound Pessure Level [dB]  / [2.83V 1m] "	"Frequency [Hz]"	"Sound Pessure Level [dB]  / [2.83V 1m] "	"Frequency [Hz]"	"Sound Pessure Level [dB]  / [2.83V 1m] "	"Frequency [Hz]"	"Sound Pessure Level [dB]  / [2.83V 1m] "	"Frequency [Hz]"	"Sound Pessure Level [dB]  / [2.83V 1m] "	"Frequency [Hz]"	"Sound Pessure Level [dB]  / [2.83V 1m] "
20.5078	77.5943	20.5078	77.4932	20.5078	77.5271	20.5078	77.2223	20.5078	77.2865	20.5078	76.7737	20.5078	76.8606	20.5078	76.131	20.5078	76.229	20.5078	75.2668	20.5078	75.3591	20.5078	74.1365	20.5078	74.1994	20.5078	72.667	20.5078	72.6658	20.5078	70.7315	20.5078	70.6103	20.5078	68.0838	20.5078	67.7357	20.5078	64.1437	20.5078	63.2879	20.5078	56.8448	20.5078	53.9171	20.5078	47.8695	20.5078	52.6755	20.5078	60.4103	20.5078	62.0751	20.5078	65.0359	20.5078	66.021	20.5078	67.6275	20.5078	68.2685	20.5078	69.1979	20.5078	69.595	20.5078	70.0882	20.5078	70.2798	20.5078	70.435
21.9727	79.6608	21.9727	79.5554	21.9727	79.6008	21.9727	79.2829	21.9727	79.371	21.9727	78.8363	21.9727	78.9615	21.9727	78.2015	21.9727	78.3553	21.9727	77.3567	21.9727	77.5271	21.9727	76.2701	21.9727	76.4415	21.9727	74.8989	21.9727	75.0512	21.9727	73.1936	21.9727	73.3038	21.9727	71.1334	21.9727	71.1851	21.9727	68.8911	21.9727	68.921	21.9727	67.2932	21.9727	67.4838	21.9727	67.5681	21.9727	68.0267	21.9727	69.2208	21.9727	69.7541	21.9727	70.9954	21.9727	71.4643	21.9727	72.4183	21.9727	72.78	21.9727	73.4245	21.9727	73.6681	21.9727	74.0365	21.9727	74.1588	21.9727	74.2784
23.4375	81.5968	23.4375	81.5152	23.4375	81.5313	23.4375	81.2872	23.4375	81.3166	23.4375	80.9119	23.4375	80.949	23.4375	80.3886	23.4375	80.425	23.4375	79.7193	23.4375	79.7448	23.4375	78.9152	23.4375	78.9196	23.4375	78.0095	23.4375	77.9881	23.4375	77.0803	23.4375	77.0438	23.4375	76.2755	23.4375	76.2631	23.4375	75.8012	23.4375	75.8752	23.4375	75.8132	23.4375	76.0141	23.4375	76.28	23.4375	76.587	23.4375	77.0085	23.4375	77.3611	23.4375	77.7927	23.4375	78.1314	23.4375	78.495	23.4375	78.7777	23.4375	79.0429	23.4375	79.2435	23.4375	79.4025	23.4375	79.5062	23.4375	79.559
24.9023	84.7342	24.9023	84.6724	24.9023	84.6895	24.9023	84.5059	24.9023	84.5381	24.9023	84.2381	24.9023	84.2816	24.9023	83.8756	24.9023	83.9253	24.9023	83.4299	24.9023	83.4806	24.9023	82.9216	24.9023	82.9695	24.9023	82.3844	24.9023	82.4299	24.9023	81.8695	24.9023	81.9203	24.9023	81.444	24.9023	81.5163	24.9023	81.1778	24.9023	81.2913	24.9023	81.117	24.9023	81.2838	24.9023	81.2593	24.9023	81.4744	24.9023	81.5535	24.9023	81.7951	24.9023	81.9231	24.9023	82.1612	24.9023	82.2939	24.9023	82.4995	24.9023	82.6085	24.9023	82.7583	24.9023	82.8282	24.9023	82.907	24.9023	82.9309
26.3672	87.4627	26.3672	87.4163	26.3672	87.4331	26.3672	87.2958	26.3672	87.3282	26.3672	87.1061	26.3672	87.152	26.3672	86.8557	26.3672	86.9126	26.3672	86.5579	26.3672	86.6237	26.3672	86.232	26.3672	86.3062	26.3672	85.9044	26.3672	85.9891	26.3672	85.608	26.3672	85.7086	26.3672	85.3783	26.3672	85.5027	26.3672	85.2463	26.3672	85.4011	26.3672	85.2285	26.3672	85.4151	26.3672	85.3203	26.3672	85.5315	26.3672	85.4968	26.3672	85.7173	26.3672	85.7208	26.3672	85.9304	26.3672	85.9517	26.3672	86.1301	26.3672	86.1543	26.3672	86.2837	26.3672	86.3014	26.3672	86.3693	26.3672	86.3758
27.832	90.0722	27.832	90.0337	27.832	90.0544	27.832	89.9407	27.832	89.9812	27.832	89.7978	27.832	89.8567	27.832	89.6128	27.832	89.6883	27.832	89.3969	27.832	89.4875	27.832	89.1654	27.832	89.2704	27.832	88.937	27.832	89.0571	27.832	88.7333	27.832	88.8705	27.832	88.576	27.832	88.7327	27.832	88.4825	27.832	88.66	27.832	88.4619	27.832	88.6579	27.832	88.5119	27.832	88.7192	27.832	88.6186	27.832	88.8254	27.832	88.7604	27.832	88.9516	27.832	88.9119	27.832	89.0721	27.832	89.0493	27.832	89.1646	27.832	89.1531	27.832	89.2134	27.832	89.2099
29.2969	92.4626	29.2969	92.4312	29.2969	92.4556	29.2969	92.363	29.2969	92.4112	29.2969	92.2619	29.2969	92.3328	29.2969	92.1345	29.2969	92.2267	29.2969	91.9897	29.2969	92.1018	29.2969	91.839	29.2969	91.9699	29.2969	91.6956	29.2969	91.8447	29.2969	91.5735	29.2969	91.7406	29.2969	91.4859	29.2969	91.6701	29.2969	91.4423	29.2969	91.6415	29.2969	91.447	29.2969	91.6566	29.2969	91.4974	29.2969	91.7097	29.2969	91.5841	29.2969	91.7887	29.2969	91.6932	29.2969	91.8777	29.2969	91.8082	29.2969	91.96	29.2969	91.9129	29.2969	92.021	29.2969	91.9938	29.2969	92.05	29.2969	92.0411
30.7617	94.8646	30.7617	94.8403	30.7617	94.8629	30.7617	94.7912	30.7617	94.836	30.7617	94.7204	30.7617	94.7867	30.7617	94.6327	30.7617	94.7198	30.7617	94.5349	30.7617	94.6421	30.7617	94.4352	30.7617	94.5618	30.7617	94.3427	30.7617	94.4881	30.7617	94.2668	30.7617	94.4302	30.7617	94.2157	30.7617	94.3955	30.7617	94.1955	30.7617	94.3884	30.7617	94.2083	30.7617	94.4092	30.7617	94.2521	30.7617	94.4534	30.7617	94.3208	30.7617	94.5127	30.7617	94.4049	30.7617	94.5765	30.7617	94.4931	30.7617	94.6336	30.7617	94.5742	30.7617	94.6739	30.7617	94.6383	30.7617	94.6901	30.7617	94.6782
32.2266	97.3749	32.2266	97.3497	32.2266	97.3833	32.2266	97.3084	32.2266	97.3752	32.2266	97.2535	32.2266	97.3526	32.2266	97.1885	32.2266	97.3188	32.2266	97.1185	32.2266	97.2784	32.2266	97.0492	32.2266	97.2366	32.2266	96.9871	32.2266	97.1992	32.2266	96.9383	32.2266	97.1718	32.2266	96.9084	32.2266	97.1585	32.2266	96.9011	32.2266	97.1616	32.2266	96.9179	32.2266	97.1807	32.2266	96.9571	32.2266	97.2127	32.2266	97.0146	32.2266	97.252	32.2266	97.0839	32.2266	97.2917	32.2266	97.1571	32.2266	97.3243	32.2266	97.226	32.2266	97.3433	32.2266	97.2834	32.2266	97.3439	32.2266	97.3238
33.6914	99.4152	33.6914	99.3914	33.6914	99.4283	33.6914	99.3577	33.6914	99.4309	33.6914	99.316	33.6914	99.4242	33.6914	99.269	33.6914	99.4104	33.6914	99.2201	33.6914	99.3923	33.6914	99.1734	33.6914	99.3733	33.6914	99.1334	33.6914	99.3572	33.6914	99.1042	33.6914	99.3473	33.6914	99.0893	33.6914	99.346	33.6914	99.0912	33.6914	99.3546	33.6914	99.1105	33.6914	99.3726	33.6914	99.1462	33.6914	99.3977	33.6914	99.195	33.6914	99.4261	33.6914	99.2525	33.6914	99.4529	33.6914	99.313	33.6914	99.4731	33.6914	99.3704	33.6914	99.4822	33.6914	99.4195	33.6914	99.4769	33.6914	99.4558
35.1562	100.989	35.1562	100.967	35.1562	101.002	35.1562	100.938	35.1562	101.008	35.1562	100.905	35.1562	101.008	35.1562	100.867	35.1562	101.002	35.1562	100.83	35.1562	100.993	35.1562	100.795	35.1562	100.983	35.1562	100.765	35.1562	100.975	35.1562	100.745	35.1562	100.972	35.1562	100.736	35.1562	100.975	35.1562	100.741	35.1562	100.984	35.1562	100.759	35.1562	101	35.1562	100.789	35.1562	101.019	35.1562	100.83	35.1562	101.04	35.1562	100.878	35.1562	101.059	35.1562	100.928	35.1562	101.072	35.1562	100.975	35.1562	101.076	35.1562	101.017	35.1562	101.069	35.1562	101.049
36.6211	102.457	36.6211	102.436	36.6211	102.473	36.6211	102.412	36.6211	102.485	36.6211	102.385	36.6211	102.493	36.6211	102.357	36.6211	102.498	36.6211	102.33	36.6211	102.501	36.6211	102.306	36.6211	102.504	36.6211	102.287	36.6211	102.507	36.6211	102.276	36.6211	102.514	36.6211	102.274	36.6211	102.523	36.6211	102.283	36.6211	102.536	36.6211	102.302	36.6211	102.551	36.6211	102.331	36.6211	102.568	36.6211	102.368	36.6211	102.584	36.6211	102.41	36.6211	102.596	36.6211	102.455	36.6211	102.603	36.6211	102.499	36.6211	102.601	36.6211	102.537	36.6211	102.59	36.6211	102.568
38.0859	103.604	38.0859	103.582	38.0859	103.624	38.0859	103.558	38.0859	103.642	38.0859	103.534	38.0859	103.657	38.0859	103.51	38.0859	103.67	38.0859	103.488	38.0859	103.682	38.0859	103.47	38.0859	103.693	38.0859	103.457	38.0859	103.704	38.0859	103.451	38.0859	103.716	38.0859	103.453	38.0859	103.729	38.0859	103.465	38.0859	103.743	38.0859	103.485	38.0859	103.757	38.0859	103.513	38.0859	103.77	38.0859	103.548	38.0859	103.78	38.0859	103.588	38.0859	103.787	38.0859	103.63	38.0859	103.787	38.0859	103.671	38.0859	103.78	38.0859	103.709	38.0859	103.764	38.0859	103.74
39.5508	104.553	39.5508	104.531	39.5508	104.574	39.5508	104.509	39.5508	104.593	39.5508	104.487	39.5508	104.61	39.5508	104.466	39.5508	104.627	39.5508	104.447	39.5508	104.641	39.5508	104.432	39.5508	104.655	39.5508	104.421	39.5508	104.668	39.5508	104.417	39.5508	104.681	39.5508	104.419	39.5508	104.694	39.5508	104.429	39.5508	104.705	39.5508	104.446	39.5508	104.716	39.5508	104.47	39.5508	104.724	39.5508	104.5	39.5508	104.73	39.5508	104.534	39.5508	104.731	39.5508	104.571	39.5508	104.726	39.5508	104.608	39.5508	104.715	39.5508	104.642	39.5508	104.697	39.5508	104.672
41.0156	105.371	41.0156	105.346	41.0156	105.397	41.0156	105.32	41.0156	105.422	41.0156	105.296	41.0156	105.446	41.0156	105.274	41.0156	105.468	41.0156	105.255	41.0156	105.489	41.0156	105.24	41.0156	105.507	41.0156	105.23	41.0156	105.524	41.0156	105.226	41.0156	105.539	41.0156	105.228	41.0156	105.552	41.0156	105.238	41.0156	105.562	41.0156	105.254	41.0156	105.569	41.0156	105.277	41.0156	105.573	41.0156	105.306	41.0156	105.572	41.0156	105.34	41.0156	105.566	41.0156	105.376	41.0156	105.554	41.0156	105.413	41.0156	105.536	41.0156	105.45	41.0156	105.513	41.0156	105.483
42.4805	106.159	42.4805	106.134	42.4805	106.185	42.4805	106.109	42.4805	106.21	42.4805	106.085	42.4805	106.234	42.4805	106.064	42.4805	106.256	42.4805	106.045	42.4805	106.276	42.4805	106.03	42.4805	106.294	42.4805	106.019	42.4805	106.309	42.4805	106.013	42.4805	106.322	42.4805	106.012	42.4805	106.331	42.4805	106.018	42.4805	106.337	42.4805	106.03	42.4805	106.339	42.4805	106.048	42.4805	106.337	42.4805	106.071	42.4805	106.331	42.4805	106.1	42.4805	106.32	42.4805	106.131	42.4805	106.305	42.4805	106.164	42.4805	106.284	42.4805	106.198	42.4805	106.259	42.4805	106.23
43.9453	106.758	43.9453	106.736	43.9453	106.779	43.9453	106.714	43.9453	106.799	43.9453	106.693	43.9453	106.818	43.9453	106.673	43.9453	106.835	43.9453	106.655	43.9453	106.85	43.9453	106.64	43.9453	106.863	43.9453	106.627	43.9453	106.873	43.9453	106.619	43.9453	106.88	43.9453	106.616	43.9453	106.885	43.9453	106.617	43.9453	106.887	43.9453	106.624	43.9453	106.886	43.9453	106.636	43.9453	106.881	43.9453	106.653	43.9453	106.873	43.9453	106.675	43.9453	106.862	43.9453	106.7	43.9453	106.847	43.9453	106.726	43.9453	106.828	43.9453	106.754	43.9453	106.806	43.9453	106.781
45.4102	107.278	45.4102	107.26	45.4102	107.296	45.4102	107.241	45.4102	107.313	45.4102	107.222	45.4102	107.328	45.4102	107.204	45.4102	107.341	45.4102	107.188	45.4102	107.352	45.4102	107.173	45.4102	107.361	45.4102	107.161	45.4102	107.367	45.4102	107.151	45.4102	107.37	45.4102	107.144	45.4102	107.37	45.4102	107.142	45.4102	107.367	45.4102	107.143	45.4102	107.361	45.4102	107.148	45.4102	107.352	45.4102	107.157	45.4102	107.34	45.4102	107.17	45.4102	107.326	45.4102	107.186	45.4102	107.309	45.4102	107.205	45.4102	107.29	45.4102	107.226	45.4102	107.269	45.4102	107.248
46.875	107.821	46.875	107.803	46.875	107.837	46.875	107.785	46.875	107.852	46.875	107.766	46.875	107.865	46.875	107.748	46.875	107.875	46.875	107.729	46.875	107.883	46.875	107.712	46.875	107.888	46.875	107.695	46.875	107.89	46.875	107.681	46.875	107.889	46.875	107.669	46.875	107.884	46.875	107.66	46.875	107.876	46.875	107.654	46.875	107.864	46.875	107.652	46.875	107.849	46.875	107.654	46.875	107.831	46.875	107.66	46.875	107.811	46.875	107.671	46.875	107.789	46.875	107.685	46.875	107.767	46.875	107.702	46.875	107.744	46.875	107.722
48.3398	108.368	48.3398	108.349	48.3398	108.386	48.3398	108.328	48.3398	108.402	48.3398	108.306	48.3398	108.415	48.3398	108.283	48.3398	108.425	48.3398	108.261	48.3398	108.432	48.3398	108.239	48.3398	108.436	48.3398	108.219	48.3398	108.436	48.3398	108.201	48.3398	108.433	48.3398	108.185	48.3398	108.425	48.3398	108.173	48.3398	108.414	48.3398	108.164	48.3398	108.398	48.3398	108.16	48.3398	108.379	48.3398	108.161	48.3398	108.357	48.3398	108.166	48.3398	108.333	48.3398	108.176	48.3398	108.307	48.3398	108.19	48.3398	108.281	48.3398	108.209	48.3398	108.255	48.3398	108.231
51.2695	109.188	51.2695	109.167	51.2695	109.209	51.2695	109.148	51.2695	109.23	51.2695	109.13	51.2695	109.251	51.2695	109.114	51.2695	109.272	51.2695	109.1	51.2695	109.29	51.2695	109.087	51.2695	109.306	51.2695	109.078	51.2695	109.319	51.2695	109.07	51.2695	109.328	51.2695	109.066	51.2695	109.333	51.2695	109.065	51.2695	109.333	51.2695	109.068	51.2695	109.329	51.2695	109.074	51.2695	109.319	51.2695	109.084	51.2695	109.305	51.2695	109.099	51.2695	109.287	51.2695	109.117	51.2695	109.265	51.2695	109.138	51.2695	109.241	51.2695	109.162	51.2695	109.215	51.2695	109.188
52.7344	109.724	52.7344	109.707	52.7344	109.742	52.7344	109.692	52.7344	109.761	52.7344	109.679	52.7344	109.78	52.7344	109.667	52.7344	109.799	52.7344	109.657	52.7344	109.816	52.7344	109.649	52.7344	109.832	52.7344	109.643	52.7344	109.844	52.7344	109.638	52.7344	109.853	52.7344	109.634	52.7344	109.858	52.7344	109.633	52.7344	109.858	52.7344	109.634	52.7344	109.853	52.7344	109.638	52.7344	109.844	52.7344	109.645	52.7344	109.83	52.7344	109.655	52.7344	109.813	52.7344	109.669	52.7344	109.793	52.7344	109.685	52.7344	109.771	52.7344	109.705	52.7344	109.748	52.7344	109.726
54.1992	110.261	54.1992	110.248	54.1992	110.275	54.1992	110.236	54.1992	110.289	54.1992	110.225	54.1992	110.304	54.1992	110.214	54.1992	110.317	54.1992	110.204	54.1992	110.329	54.1992	110.194	54.1992	110.339	54.1992	110.185	54.1992	110.346	54.1992	110.176	54.1992	110.35	54.1992	110.168	54.1992	110.349	54.1992	110.161	54.1992	110.344	54.1992	110.156	54.1992	110.335	54.1992	110.154	54.1992	110.322	54.1992	110.154	54.1992	110.306	54.1992	110.158	54.1992	110.288	54.1992	110.165	54.1992	110.267	54.1992	110.176	54.1992	110.247	54.1992	110.19	54.1992	110.226	54.1992	110.207
55.6641	110.729	55.6641	110.711	55.6641	110.745	55.6641	110.692	55.6641	110.759	55.6641	110.671	55.6641	110.77	55.6641	110.65	55.6641	110.778	55.6641	110.628	55.6641	110.783	55.6641	110.606	55.6641	110.783	55.6641	110.584	55.6641	110.779	55.6641	110.563	55.6641	110.77	55.6641	110.543	55.6641	110.757	55.6641	110.526	55.6641	110.74	55.6641	110.513	55.6641	110.72	55.6641	110.503	55.6641	110.696	55.6641	110.497	55.6641	110.671	55.6641	110.497	55.6641	110.644	55.6641	110.501	55.6641	110.617	55.6641	110.511	55.6641	110.59	55.6641	110.525	55.6641	110.566	55.6641	110.544
58.5938	111.285	58.5938	111.265	58.5938	111.301	58.5938	111.242	58.5938	111.313	58.5938	111.216	58.5938	111.32	58.5938	111.187	58.5938	111.323	58.5938	111.158	58.5938	111.32	58.5938	111.127	58.5938	111.312	58.5938	111.097	58.5938	111.3	58.5938	111.067	58.5938	111.282	58.5938	111.038	58.5938	111.261	58.5938	111.012	58.5938	111.235	58.5938	110.99	58.5938	111.205	58.5938	110.971	58.5938	111.173	58.5938	110.958	58.5938	111.139	58.5938	110.95	58.5938	111.104	58.5938	110.949	58.5938	111.07	58.5938	110.954	58.5938	111.038	58.5938	110.967	58.5938	111.009	58.5938	110.985
60.0586	111.664	60.0586	111.647	60.0586	111.678	60.0586	111.626	60.0586	111.687	60.0586	111.602	60.0586	111.692	60.0586	111.576	60.0586	111.693	60.0586	111.548	60.0586	111.688	60.0586	111.518	60.0586	111.679	60.0586	111.488	60.0586	111.664	60.0586	111.458	60.0586	111.646	60.0586	111.428	60.0586	111.622	60.0586	111.401	60.0586	111.595	60.0586	111.376	60.0586	111.565	60.0586	111.354	60.0586	111.532	60.0586	111.338	60.0586	111.497	60.0586	111.326	60.0586	111.462	60.0586	111.322	60.0586	111.429	60.0586	111.324	60.0586	111.398	60.0586	111.333	60.0586	111.37	60.0586	111.348
62.9883	112.261	62.9883	112.248	62.9883	112.269	62.9883	112.231	62.9883	112.274	62.9883	112.211	62.9883	112.274	62.9883	112.187	62.9883	112.27	62.9883	112.161	62.9883	112.26	62.9883	112.133	62.9883	112.247	62.9883	112.103	62.9883	112.229	62.9883	112.072	62.9883	112.207	62.9883	112.041	62.9883	112.181	62.9883	112.011	62.9883	112.152	62.9883	111.983	62.9883	112.121	62.9883	111.958	62.9883	112.088	62.9883	111.937	62.9883	112.054	62.9883	111.921	62.9883	112.021	62.9883	111.911	62.9883	111.99	62.9883	111.908	62.9883	111.962	62.9883	111.911	62.9883	111.939	62.9883	111.922
64.4531	112.492	64.4531	112.48	64.4531	112.5	64.4531	112.463	64.4531	112.504	64.4531	112.443	64.4531	112.503	64.4531	112.419	64.4531	112.497	64.4531	112.392	64.4531	112.487	64.4531	112.363	64.4531	112.472	64.4531	112.332	64.4531	112.453	64.4531	112.3	64.4531	112.43	64.4531	112.268	64.4531	112.403	64.4531	112.238	64.4531	112.373	64.4531	112.209	64.4531	112.341	64.4531	112.183	64.4531	112.308	64.4531	112.161	64.4531	112.274	64.4531	112.145	64.4531	112.242	64.4531	112.135	64.4531	112.211	64.4531	112.131	64.4531	112.184	64.4531	112.134	64.4531	112.161	64.4531	112.145
67.3828	112.827	67.3828	112.813	67.3828	112.836	67.3828	112.793	67.3828	112.839	67.3828	112.769	67.3828	112.837	67.3828	112.74	67.3828	112.829	67.3828	112.708	67.3828	112.815	67.3828	112.674	67.3828	112.796	67.3828	112.637	67.3828	112.773	67.3828	112.601	67.3828	112.746	67.3828	112.565	67.3828	112.716	67.3828	112.53	67.3828	112.683	67.3828	112.499	67.3828	112.649	67.3828	112.472	67.3828	112.613	67.3828	112.449	67.3828	112.577	67.3828	112.433	67.3828	112.543	67.3828	112.424	67.3828	112.51	67.3828	112.421	67.3828	112.481	67.3828	112.426	67.3828	112.457	67.3828	112.438
68.8477	113.052	68.8477	113.037	68.8477	113.061	68.8477	113.017	68.8477	113.064	68.8477	112.991	68.8477	113.061	68.8477	112.961	68.8477	113.052	68.8477	112.927	68.8477	113.038	68.8477	112.891	68.8477	113.019	68.8477	112.854	68.8477	112.995	68.8477	112.816	68.8477	112.968	68.8477	112.78	68.8477	112.938	68.8477	112.746	68.8477	112.906	68.8477	112.715	68.8477	112.872	68.8477	112.688	68.8477	112.837	68.8477	112.667	68.8477	112.802	68.8477	112.652	68.8477	112.768	68.8477	112.644	68.8477	112.736	68.8477	112.643	68.8477	112.707	68.8477	112.649	68.8477	112.682	68.8477	112.663
71.7773	113.507	71.7773	113.491	71.7773	113.516	71.7773	113.47	71.7773	113.519	71.7773	113.444	71.7773	113.515	71.7773	113.414	71.7773	113.505	71.7773	113.381	71.7773	113.489	71.7773	113.346	71.7773	113.468	71.7773	113.309	71.7773	113.443	71.7773	113.273	71.7773	113.414	71.7773	113.239	71.7773	113.383	71.7773	113.206	71.7773	113.35	71.7773	113.177	71.7773	113.315	71.7773	113.153	71.7773	113.281	71.7773	113.133	71.7773	113.248	71.7773	113.119	71.7773	113.216	71.7773	113.111	71.7773	113.187	71.7773	113.11	71.7773	113.162	71.7773	113.114	71.7773	113.141	71.7773	113.124
74.707	113.563	74.707	113.549	74.707	113.569	74.707	113.529	74.707	113.567	74.707	113.502	74.707	113.558	74.707	113.47	74.707	113.542	74.707	113.433	74.707	113.52	74.707	113.393	74.707	113.492	74.707	113.352	74.707	113.46	74.707	113.31	74.707	113.425	74.707	113.269	74.707	113.388	74.707	113.231	74.707	113.349	74.707	113.196	74.707	113.311	74.707	113.166	74.707	113.273	74.707	113.141	74.707	113.237	74.707	113.122	74.707	113.204	74.707	113.11	74.707	113.174	74.707	113.104	74.707	113.149	74.707	113.106	74.707	113.128	74.707	113.114
77.6367	113.732	77.6367	113.718	77.6367	113.737	77.6367	113.694	77.6367	113.734	77.6367	113.663	77.6367	113.721	77.6367	113.625	77.6367	113.701	77.6367	113.581	77.6367	113.675	77.6367	113.534	77.6367	113.642	77.6367	113.484	77.6367	113.605	77.6367	113.435	77.6367	113.566	77.6367	113.386	77.6367	113.524	77.6367	113.342	77.6367	113.482	77.6367	113.302	77.6367	113.44	77.6367	113.268	77.6367	113.399	77.6367	113.241	77.6367	113.36	77.6367	113.222	77.6367	113.324	77.6367	113.211	77.6367	113.292	77.6367	113.208	77.6367	113.264	77.6367	113.212	77.6367	113.241	77.6367	113.223
79.1016	113.985	79.1016	113.969	79.1016	113.991	79.1016	113.943	79.1016	113.987	79.1016	113.909	79.1016	113.974	79.1016	113.867	79.1016	113.952	79.1016	113.819	79.1016	113.922	79.1016	113.767	79.1016	113.886	79.1016	113.713	79.1016	113.846	79.1016	113.659	79.1016	113.802	79.1016	113.607	79.1016	113.757	79.1016	113.558	79.1016	113.711	79.1016	113.515	79.1016	113.666	79.1016	113.479	79.1016	113.622	79.1016	113.451	79.1016	113.581	79.1016	113.431	79.1016	113.542	79.1016	113.419	79.1016	113.508	79.1016	113.416	79.1016	113.477	79.1016	113.421	79.1016	113.452	79.1016	113.433
82.0312	113.943	82.0312	113.924	82.0312	113.951	82.0312	113.896	82.0312	113.949	82.0312	113.86	82.0312	113.936	82.0312	113.816	82.0312	113.915	82.0312	113.766	82.0312	113.886	82.0312	113.713	82.0312	113.851	82.0312	113.659	82.0312	113.811	82.0312	113.605	82.0312	113.767	82.0312	113.553	82.0312	113.722	82.0312	113.506	82.0312	113.676	82.0312	113.465	82.0312	113.631	82.0312	113.431	82.0312	113.587	82.0312	113.405	82.0312	113.546	82.0312	113.387	82.0312	113.508	82.0312	113.378	82.0312	113.473	82.0312	113.376	82.0312	113.443	82.0312	113.383	82.0312	113.417	82.0312	113.397
84.9609	113.556	84.9609	113.537	84.9609	113.564	84.9609	113.509	84.9609	113.562	84.9609	113.472	84.9609	113.55	84.9609	113.428	84.9609	113.528	84.9609	113.379	84.9609	113.499	84.9609	113.326	84.9609	113.464	84.9609	113.273	84.9609	113.425	84.9609	113.221	84.9609	113.383	84.9609	113.173	84.9609	113.34	84.9609	113.129	84.9609	113.298	84.9609	113.092	84.9609	113.257	84.9609	113.062	84.9609	113.218	84.9609	113.041	84.9609	113.182	84.9609	113.028	84.9609	113.149	84.9609	113.023	84.9609	113.119	84.9609	113.025	84.9609	113.091	84.9609	113.034	84.9609	113.068	84.9609	113.048
87.8906	113.928	87.8906	113.912	87.8906	113.935	87.8906	113.885	87.8906	113.931	87.8906	113.851	87.8906	113.918	87.8906	113.809	87.8906	113.897	87.8906	113.762	87.8906	113.87	87.8906	113.713	87.8906	113.838	87.8906	113.663	87.8906	113.803	87.8906	113.616	87.8906	113.768	87.8906	113.573	87.8906	113.734	87.8906	113.537	87.8906	113.702	87.8906	113.507	87.8906	113.672	87.8906	113.486	87.8906	113.644	87.8906	113.474	87.8906	113.618	87.8906	113.469	87.8906	113.594	87.8906	113.472	87.8906	113.572	87.8906	113.481	87.8906	113.55	87.8906	113.494	87.8906	113.53	87.8906	113.511
90.8203	114.131	90.8203	114.112	90.8203	114.135	90.8203	114.079	90.8203	114.126	90.8203	114.033	90.8203	114.104	90.8203	113.976	90.8203	114.071	90.8203	113.91	90.8203	114.03	90.8203	113.839	90.8203	113.982	90.8203	113.764	90.8203	113.929	90.8203	113.691	90.8203	113.874	90.8203	113.621	90.8203	113.82	90.8203	113.56	90.8203	113.767	90.8203	113.508	90.8203	113.718	90.8203	113.468	90.8203	113.671	90.8203	113.44	90.8203	113.629	90.8203	113.425	90.8203	113.589	90.8203	113.421	90.8203	113.553	90.8203	113.428	90.8203	113.52	90.8203	113.443	90.8203	113.49	90.8203	113.464
95.2148	113.61	95.2148	113.586	95.2148	113.619	95.2148	113.549	95.2148	113.615	95.2148	113.501	95.2148	113.597	95.2148	113.443	95.2148	113.569	95.2148	113.378	95.2148	113.53	95.2148	113.31	95.2148	113.485	95.2148	113.241	95.2148	113.435	95.2148	113.175	95.2148	113.383	95.2148	113.114	95.2148	113.332	95.2148	113.062	95.2148	113.283	95.2148	113.019	95.2148	113.238	95.2148	112.987	95.2148	113.196	95.2148	112.967	95.2148	113.158	95.2148	112.958	95.2148	113.123	95.2148	112.959	95.2148	113.091	95.2148	112.968	95.2148	113.061	95.2148	112.985	95.2148	113.032	95.2148	113.007
98.1445	113.683	98.1445	113.658	98.1445	113.694	98.1445	113.619	98.1445	113.692	98.1445	113.57	98.1445	113.676	98.1445	113.511	98.1445	113.648	98.1445	113.446	98.1445	113.611	98.1445	113.378	98.1445	113.565	98.1445	113.309	98.1445	113.515	98.1445	113.243	98.1445	113.462	98.1445	113.183	98.1445	113.41	98.1445	113.131	98.1445	113.359	98.1445	113.088	98.1445	113.311	98.1445	113.057	98.1445	113.267	98.1445	113.036	98.1445	113.227	98.1445	113.026	98.1445	113.191	98.1445	113.026	98.1445	113.157	98.1445	113.034	98.1445	113.125	98.1445	113.05	98.1445	113.097	98.1445	113.071
101.074	113.969	101.074	113.945	101.074	113.979	101.074	113.908	101.074	113.976	101.074	113.86	101.074	113.96	101.074	113.802	101.074	113.932	101.074	113.739	101.074	113.894	101.074	113.672	101.074	113.849	101.074	113.605	101.074	113.8	101.074	113.542	101.074	113.749	101.074	113.484	101.074	113.7	101.074	113.435	101.074	113.653	101.074	113.396	101.074	113.609	101.074	113.368	101.074	113.57	101.074	113.351	101.074	113.535	101.074	113.345	101.074	113.502	101.074	113.347	101.074	113.472	101.074	113.357	101.074	113.444	101.074	113.374	101.074	113.418	101.074	113.394
105.469	113.406	105.469	113.394	105.469	113.4	105.469	113.364	105.469	113.377	105.469	113.318	105.469	113.337	105.469	113.259	105.469	113.285	105.469	113.189	105.469	113.222	105.469	113.113	105.469	113.153	105.469	113.036	105.469	113.084	105.469	112.961	105.469	113.018	105.469	112.894	105.469	112.959	105.469	112.836	105.469	112.91	105.469	112.792	105.469	112.873	105.469	112.762	105.469	112.846	105.469	112.745	105.469	112.828	105.469	112.74	105.469	112.816	105.469	112.744	105.469	112.807	105.469	112.753	105.469	112.799	105.469	112.766	105.469	112.79	105.469	112.779
108.398	113.696	108.398	113.681	108.398	113.692	108.398	113.647	108.398	113.669	108.398	113.596	108.398	113.629	108.398	113.531	108.398	113.573	108.398	113.456	108.398	113.505	108.398	113.375	108.398	113.43	108.398	113.292	108.398	113.352	108.398	113.213	108.398	113.277	108.398	113.141	108.398	113.208	108.398	113.08	108.398	113.15	108.398	113.034	108.398	113.105	108.398	113.002	108.398	113.072	108.398	112.984	108.398	113.05	108.398	112.978	108.398	113.037	108.398	112.981	108.398	113.03	108.398	112.99	108.398	113.024	108.398	113	108.398	113.018	108.398	113.01
112.793	113.732	112.793	113.71	112.793	113.732	112.793	113.668	112.793	113.711	112.793	113.607	112.793	113.669	112.793	113.531	112.793	113.61	112.793	113.444	112.793	113.536	112.793	113.349	112.793	113.453	112.793	113.252	112.793	113.365	112.793	113.159	112.793	113.279	112.793	113.073	112.793	113.199	112.793	113.001	112.793	113.129	112.793	112.944	112.793	113.073	112.793	112.905	112.793	113.03	112.793	112.883	112.793	112.999	112.793	112.877	112.793	112.978	112.793	112.882	112.793	112.964	112.793	112.894	112.793	112.952	112.793	112.91	112.793	112.94	112.793	112.926
117.188	113.838	117.188	113.818	117.188	113.832	117.188	113.775	117.188	113.802	117.188	113.71	117.188	113.749	117.188	113.624	117.188	113.675	117.188	113.521	117.188	113.584	117.188	113.404	117.188	113.48	117.188	113.28	117.188	113.369	117.188	113.153	117.188	113.256	117.188	113.03	117.188	113.146	117.188	112.917	117.188	113.046	117.188	112.82	117.188	112.957	117.188	112.741	117.188	112.882	117.188	112.685	117.188	112.822	117.188	112.649	117.188	112.774	117.188	112.633	117.188	112.736	117.188	112.632	117.188	112.706	117.188	112.642	117.188	112.68	117.188	112.659
120.117	113.763	120.117	113.75	120.117	113.751	120.117	113.713	120.117	113.715	120.117	113.654	120.117	113.656	120.117	113.574	120.117	113.577	120.117	113.477	120.117	113.482	120.117	113.367	120.117	113.377	120.117	113.249	120.117	113.266	120.117	113.127	120.117	113.155	120.117	113.008	120.117	113.05	120.117	112.896	120.117	112.954	120.117	112.797	120.117	112.871	120.117	112.714	120.117	112.802	120.117	112.651	120.117	112.746	120.117	112.608	120.117	112.701	120.117	112.583	120.117	112.666	120.117	112.575	120.117	112.637	120.117	112.58	120.117	112.612	120.117	112.593
124.512	113.529	124.512	113.512	124.512	113.521	124.512	113.471	124.512	113.489	124.512	113.409	124.512	113.433	124.512	113.329	124.512	113.358	124.512	113.237	124.512	113.269	124.512	113.138	124.512	113.17	124.512	113.036	124.512	113.068	124.512	112.938	124.512	112.969	124.512	112.847	124.512	112.878	124.512	112.767	124.512	112.8	124.512	112.702	124.512	112.737	124.512	112.651	124.512	112.689	124.512	112.615	124.512	112.655	124.512	112.594	124.512	112.633	124.512	112.584	124.512	112.619	124.512	112.582	124.512	112.609	124.512	112.586	124.512	112.601	124.512	112.593
128.906	113.391	128.906	113.369	128.906	113.388	128.906	113.323	128.906	113.361	128.906	113.257	128.906	113.311	128.906	113.174	128.906	113.243	128.906	113.079	128.906	113.159	128.906	112.979	128.906	113.068	128.906	112.88	128.906	112.974	128.906	112.786	128.906	112.883	128.906	112.703	128.906	112.802	128.906	112.635	128.906	112.734	128.906	112.584	128.906	112.68	128.906	112.551	128.906	112.642	128.906	112.534	128.906	112.618	128.906	112.53	128.906	112.604	128.906	112.537	128.906	112.596	128.906	112.549	128.906	112.591	128.906	112.563	128.906	112.584	128.906	112.575
133.301	113.323	133.301	113.298	133.301	113.323	133.301	113.248	133.301	113.298	133.301	113.176	133.301	113.249	133.301	113.088	133.301	113.18	133.301	112.988	133.301	113.097	133.301	112.882	133.301	113.005	133.301	112.777	133.301	112.911	133.301	112.679	133.301	112.822	133.301	112.594	133.301	112.742	133.301	112.526	133.301	112.677	133.301	112.478	133.301	112.628	133.301	112.45	133.301	112.595	133.301	112.441	133.301	112.575	133.301	112.447	133.301	112.565	133.301	112.464	133.301	112.559	133.301	112.486	133.301	112.553	133.301	112.509	133.301	112.544	133.301	112.529
139.16	113.25	139.16	113.226	139.16	113.247	139.16	113.175	139.16	113.218	139.16	113.101	139.16	113.163	139.16	113.009	139.16	113.087	139.16	112.902	139.16	112.995	139.16	112.788	139.16	112.893	139.16	112.673	139.16	112.788	139.16	112.565	139.16	112.687	139.16	112.47	139.16	112.597	139.16	112.394	139.16	112.524	139.16	112.341	139.16	112.47	139.16	112.311	139.16	112.435	139.16	112.302	139.16	112.417	139.16	112.311	139.16	112.411	139.16	112.332	139.16	112.412	139.16	112.357	139.16	112.413	139.16	112.381	139.16	112.41	139.16	112.4
143.555	113.217	143.555	113.187	143.555	113.217	143.555	113.129	143.555	113.19	143.555	113.047	143.555	113.135	143.555	112.944	143.555	113.058	143.555	112.826	143.555	112.964	143.555	112.699	143.555	112.858	143.555	112.571	143.555	112.749	143.555	112.449	143.555	112.644	143.555	112.341	143.555	112.55	143.555	112.255	143.555	112.472	143.555	112.194	143.555	112.413	143.555	112.161	143.555	112.374	143.555	112.154	143.555	112.351	143.555	112.168	143.555	112.34	143.555	112.197	143.555	112.335	143.555	112.232	143.555	112.329	143.555	112.268	143.555	112.317	143.555	112.297
147.949	113.162	147.949	113.129	147.949	113.162	147.949	113.063	147.949	113.129	147.949	112.967	147.949	113.066	147.949	112.846	147.949	112.978	147.949	112.705	147.949	112.87	147.949	112.552	147.949	112.75	147.949	112.395	147.949	112.626	147.949	112.245	147.949	112.507	147.949	112.111	147.949	112.401	147.949	112.002	147.949	112.313	147.949	111.924	147.949	112.246	147.949	111.88	147.949	112.199	147.949	111.87	147.949	112.17	147.949	111.888	147.949	112.153	147.949	111.926	147.949	112.14	147.949	111.974	147.949	112.124	147.949	112.024	147.949	112.101	147.949	112.067
153.809	113.047	153.809	113.017	153.809	113.041	153.809	112.954	153.809	113	153.809	112.859	153.809	112.927	153.809	112.738	153.809	112.827	153.809	112.597	153.809	112.707	153.809	112.443	153.809	112.575	153.809	112.284	153.809	112.442	153.809	112.13	153.809	112.316	153.809	111.99	153.809	112.206	153.809	111.873	153.809	112.118	153.809	111.785	153.809	112.054	153.809	111.731	153.809	112.013	153.809	111.711	153.809	111.991	153.809	111.721	153.809	111.98	153.809	111.754	153.809	111.971	153.809	111.801	153.809	111.958	153.809	111.852	153.809	111.934	153.809	111.898
159.668	112.923	159.668	112.892	159.668	112.918	159.668	112.826	159.668	112.876	159.668	112.727	159.668	112.803	159.668	112.601	159.668	112.702	159.668	112.455	159.668	112.582	159.668	112.298	159.668	112.45	159.668	112.14	159.668	112.318	159.668	111.991	159.668	112.193	159.668	111.86	159.668	112.085	159.668	111.757	159.668	111.999	159.668	111.688	159.668	111.94	159.668	111.654	159.668	111.905	159.668	111.653	159.668	111.892	159.668	111.679	159.668	111.892	159.668	111.723	159.668	111.897	159.668	111.775	159.668	111.898	159.668	111.824	159.668	111.887	159.668	111.863
165.527	112.954	165.527	112.932	165.527	112.94	165.527	112.874	165.527	112.892	165.527	112.784	165.527	112.812	165.527	112.667	165.527	112.706	165.527	112.529	165.527	112.582	165.527	112.378	165.527	112.449	165.527	112.223	165.527	112.319	165.527	112.073	165.527	112.2	165.527	111.938	165.527	112.102	165.527	111.829	165.527	112.029	165.527	111.752	165.527	111.984	165.527	111.711	165.527	111.964	165.527	111.706	165.527	111.963	165.527	111.732	165.527	111.972	165.527	111.779	165.527	111.981	165.527	111.836	165.527	111.983	165.527	111.893	165.527	111.969	165.527	111.939
171.387	112.798	171.387	112.77	171.387	112.784	171.387	112.704	171.387	112.73	171.387	112.604	171.387	112.639	171.387	112.475	171.387	112.516	171.387	112.327	171.387	112.372	171.387	112.167	171.387	112.216	171.387	112.006	171.387	112.063	171.387	111.856	171.387	111.924	171.387	111.726	171.387	111.812	171.387	111.625	171.387	111.734	171.387	111.559	171.387	111.693	171.387	111.531	171.387	111.686	171.387	111.539	171.387	111.704	171.387	111.575	171.387	111.736	171.387	111.629	171.387	111.769	171.387	111.688	171.387	111.793	171.387	111.742	171.387	111.797	171.387	111.78
177.246	112.681	177.246	112.646	177.246	112.671	177.246	112.569	177.246	112.616	177.246	112.454	177.246	112.521	177.246	112.308	177.246	112.39	177.246	112.14	177.246	112.232	177.246	111.96	177.246	112.06	177.246	111.779	177.246	111.887	177.246	111.61	177.246	111.727	177.246	111.466	177.246	111.594	177.246	111.356	177.246	111.496	177.246	111.288	177.246	111.44	177.246	111.263	177.246	111.423	177.246	111.277	177.246	111.437	177.246	111.321	177.246	111.471	177.246	111.383	177.246	111.51	177.246	111.447	177.246	111.54	177.246	111.503	177.246	111.552	177.246	111.539
183.105	112.457	183.105	112.424	183.105	112.443	183.105	112.346	183.105	112.383	183.105	112.228	183.105	112.283	183.105	112.074	183.105	112.149	183.105	111.895	183.105	111.994	183.105	111.7	183.105	111.829	183.105	111.503	183.105	111.668	183.105	111.317	183.105	111.525	183.105	111.158	183.105	111.411	183.105	111.041	183.105	111.331	183.105	110.975	183.105	111.291	183.105	110.964	183.105	111.285	183.105	111.002	183.105	111.308	183.105	111.076	183.105	111.345	183.105	111.168	183.105	111.385	183.105	111.262	183.105	111.413	183.105	111.341	183.105	111.419	183.105	111.395
188.965	112.407	188.965	112.405	188.965	112.361	188.965	112.353	188.965	112.267	188.965	112.253	188.965	112.134	188.965	112.111	188.965	111.969	188.965	111.931	188.965	111.785	188.965	111.724	188.965	111.597	188.965	111.499	188.965	111.42	188.965	111.271	188.965	111.267	188.965	111.059	188.965	111.15	188.965	110.881	188.965	111.075	188.965	110.754	188.965	111.04	188.965	110.69	188.965	111.039	188.965	110.688	188.965	111.063	188.965	110.739	188.965	111.096	188.965	110.825	188.965	111.126	188.965	110.924	188.965	111.141	188.965	111.017	188.965	111.129	188.965	111.088
196.289	112.324	196.289	112.324	196.289	112.273	196.289	112.273	196.289	112.173	196.289	112.174	196.289	112.029	196.289	112.032	196.289	111.851	196.289	111.853	196.289	111.652	196.289	111.646	196.289	111.446	196.289	111.421	196.289	111.251	196.289	111.19	196.289	111.084	196.289	110.971	196.289	110.958	196.289	110.78	196.289	110.88	196.289	110.636	196.289	110.849	196.289	110.552	196.289	110.857	196.289	110.533	196.289	110.891	196.289	110.571	196.289	110.933	196.289	110.651	196.289	110.969	196.289	110.749	196.289	110.984	196.289	110.845	196.289	110.97	196.289	110.922
203.613	112.128	203.613	112.125	203.613	112.078	203.613	112.073	203.613	111.976	203.613	111.975	203.613	111.825	203.613	111.839	203.613	111.633	203.613	111.671	203.613	111.41	203.613	111.479	203.613	111.174	203.613	111.273	203.613	110.945	203.613	111.063	203.613	110.743	203.613	110.859	203.613	110.59	203.613	110.674	203.613	110.495	203.613	110.523	203.613	110.462	203.613	110.419	203.613	110.479	203.613	110.369	203.613	110.529	203.613	110.373	203.613	110.592	203.613	110.421	203.613	110.646	203.613	110.495	203.613	110.677	203.613	110.574	203.613	110.675	203.613	110.639
210.938	112.077	210.938	112.048	210.938	112.045	210.938	111.961	210.938	111.951	210.938	111.821	210.938	111.798	210.938	111.634	210.938	111.595	210.938	111.411	210.938	111.355	210.938	111.164	210.938	111.094	210.938	110.907	210.938	110.837	210.938	110.658	210.938	110.609	210.938	110.434	210.938	110.432	210.938	110.253	210.938	110.322	210.938	110.128	210.938	110.281	210.938	110.066	210.938	110.298	210.938	110.065	210.938	110.353	210.938	110.117	210.938	110.421	210.938	110.204	210.938	110.482	210.938	110.305	210.938	110.516	210.938	110.402	210.938	110.515	210.938	110.475
218.262	111.809	218.262	111.789	218.262	111.77	218.262	111.712	218.262	111.672	218.262	111.585	218.262	111.517	218.262	111.416	218.262	111.314	218.262	111.213	218.262	111.075	218.262	110.991	218.262	110.82	218.262	110.762	218.262	110.572	218.262	110.541	218.262	110.357	218.262	110.344	218.262	110.199	218.262	110.185	218.262	110.113	218.262	110.076	218.262	110.1	218.262	110.023	218.262	110.147	218.262	110.027	218.262	110.232	218.262	110.081	218.262	110.327	218.262	110.169	218.262	110.409	218.262	110.271	218.262	110.46	218.262	110.366	218.262	110.47	218.262	110.437
225.586	111.728	225.586	111.706	225.586	111.682	225.586	111.62	225.586	111.567	225.586	111.477	225.586	111.387	225.586	111.291	225.586	111.151	225.586	111.075	225.586	110.875	225.586	110.847	225.586	110.58	225.586	110.624	225.586	110.295	225.586	110.426	225.586	110.054	225.586	110.266	225.586	109.889	225.586	110.157	225.586	109.823	225.586	110.106	225.586	109.86	225.586	110.112	225.586	109.981	225.586	110.169	225.586	110.153	225.586	110.266	225.586	110.335	225.586	110.383	225.586	110.494	225.586	110.5	225.586	110.607	225.586	110.597	225.586	110.661	225.586	110.656
232.91	111.697	232.91	111.679	232.91	111.643	232.91	111.593	232.91	111.514	232.91	111.448	232.91	111.313	232.91	111.254	232.91	111.047	232.91	111.025	232.91	110.726	232.91	110.776	232.91	110.369	232.91	110.526	232.91	109.999	232.91	110.293	232.91	109.652	232.91	110.095	232.91	109.368	232.91	109.95	232.91	109.188	232.91	109.869	232.91	109.138	232.91	109.854	232.91	109.218	232.91	109.898	232.91	109.399	232.91	109.983	232.91	109.631	232.91	110.087	232.91	109.865	232.91	110.182	232.91	110.059	232.91	110.244	232.91	110.191	232.91	110.251
241.699	111.425	241.699	111.374	241.699	111.406	241.699	111.26	241.699	111.316	241.699	111.092	241.699	111.154	241.699	110.881	241.699	110.927	241.699	110.643	241.699	110.642	241.699	110.394	241.699	110.314	241.699	110.149	241.699	109.962	241.699	109.925	241.699	109.612	241.699	109.736	241.699	109.296	241.699	109.593	241.699	109.048	241.699	109.502	241.699	108.899	241.699	109.465	241.699	108.865	241.699	109.478	241.699	108.94	241.699	109.528	241.699	109.091	241.699	109.596	241.699	109.277	241.699	109.657	241.699	109.454	241.699	109.688	241.699	109.59	241.699	109.669
250.488	111.401	250.488	111.312	250.488	111.407	250.488	111.145	250.488	111.331	250.488	110.909	250.488	111.174	250.488	110.618	250.488	110.944	250.488	110.288	250.488	110.652	250.488	109.943	250.488	110.314	250.488	109.611	250.488	109.951	250.488	109.322	250.488	109.588	250.488	109.104	250.488	109.255	250.488	108.978	250.488	108.986	250.488	108.947	250.488	108.812	250.488	109.002	250.488	108.754	250.488	109.117	250.488	108.809	250.488	109.26	250.488	108.95	250.488	109.399	250.488	109.135	250.488	109.507	250.488	109.319	250.488	109.561	250.488	109.464	250.488	109.548
259.277	111.644	259.277	111.595	259.277	111.619	259.277	111.474	259.277	111.52	259.277	111.287	259.277	111.356	259.277	111.046	259.277	111.137	259.277	110.759	259.277	110.878	259.277	110.439	259.277	110.593	259.277	110.101	259.277	110.296	259.277	109.764	259.277	109.998	259.277	109.456	259.277	109.712	259.277	109.208	259.277	109.455	259.277	109.045	259.277	109.246	259.277	108.982	259.277	109.108	259.277	109.008	259.277	109.055	259.277	109.097	259.277	109.083	259.277	109.212	259.277	109.168	259.277	109.318	259.277	109.273	259.277	109.387	259.277	109.36	259.277	109.402
268.066	111.221	268.066	111.184	268.066	111.192	268.066	111.079	268.066	111.098	268.066	110.91	268.066	110.947	268.066	110.681	268.066	110.748	268.066	110.395	268.066	110.513	268.066	110.061	268.066	110.258	268.066	109.689	268.066	110	268.066	109.301	268.066	109.756	268.066	108.93	268.066	109.54	268.066	108.622	268.066	109.364	268.066	108.419	268.066	109.233	268.066	108.346	268.066	109.151	268.066	108.399	268.066	109.116	268.066	108.542	268.066	109.121	268.066	108.727	268.066	109.15	268.066	108.91	268.066	109.181	268.066	109.057	268.066	109.188	268.066	109.15
276.855	111.281	276.855	111.235	276.855	111.269	276.855	111.131	276.855	111.197	276.855	110.97	276.855	111.066	276.855	110.751	276.855	110.875	276.855	110.472	276.855	110.631	276.855	110.131	276.855	110.342	276.855	109.729	276.855	110.026	276.855	109.274	276.855	109.708	276.855	108.786	276.855	109.414	276.855	108.304	276.855	109.169	276.855	107.884	276.855	108.988	276.855	107.587	276.855	108.873	276.855	107.457	276.855	108.811	276.855	107.498	276.855	108.777	276.855	107.674	276.855	108.745	276.855	107.921	276.855	108.684	276.855	108.179	276.855	108.575	276.855	108.405
287.109	111.226	287.109	111.204	287.109	111.171	287.109	111.109	287.109	111.039	287.109	110.947	287.109	110.835	287.109	110.727	287.109	110.571	287.109	110.455	287.109	110.268	287.109	110.14	287.109	109.951	287.109	109.792	287.109	109.65	287.109	109.425	287.109	109.389	287.109	109.057	287.109	109.185	287.109	108.715	287.109	109.043	287.109	108.426	287.109	108.957	287.109	108.22	287.109	108.915	287.109	108.118	287.109	108.903	287.109	108.124	287.109	108.904	287.109	108.22	287.109	108.899	287.109	108.372	287.109	108.871	287.109	108.541	287.109	108.804	287.109	108.692
297.363	110.846	297.363	110.885	297.363	110.714	297.363	110.835	297.363	110.494	297.363	110.706	297.363	110.197	297.363	110.514	297.363	109.847	297.363	110.277	297.363	109.476	297.363	110.013	297.363	109.126	297.363	109.739	297.363	108.843	297.363	109.469	297.363	108.665	297.363	109.211	297.363	108.61	297.363	108.973	297.363	108.672	297.363	108.768	297.363	108.82	297.363	108.612	297.363	109.01	297.363	108.528	297.363	109.198	297.363	108.534	297.363	109.346	297.363	108.632	297.363	109.427	297.363	108.801	297.363	109.427	297.363	109.004	297.363	109.347	297.363	109.198
307.617	111.07	307.617	110.994	307.617	111.026	307.617	110.81	307.617	110.857	307.617	110.538	307.617	110.563	307.617	110.204	307.617	110.157	307.617	109.849	307.617	109.667	307.617	109.519	307.617	109.144	307.617	109.263	307.617	108.667	307.617	109.121	307.617	108.327	307.617	109.102	307.617	108.192	307.617	109.188	307.617	108.271	307.617	109.338	307.617	108.507	307.617	109.507	307.617	108.82	307.617	109.663	307.617	109.137	307.617	109.787	307.617	109.416	307.617	109.876	307.617	109.636	307.617	109.932	307.617	109.795	307.617	109.956	307.617	109.896	307.617	109.947
319.336	111.747	319.336	111.629	319.336	111.74	319.336	111.394	319.336	111.602	319.336	111.049	319.336	111.327	319.336	110.603	319.336	110.915	319.336	110.075	319.336	110.375	319.336	109.494	319.336	109.729	319.336	108.913	319.336	109.03	319.336	108.408	319.336	108.364	319.336	108.068	319.336	107.855	319.336	107.96	319.336	107.63	319.336	108.088	319.336	107.742	319.336	108.392	319.336	108.124	319.336	108.784	319.336	108.641	319.336	109.187	319.336	109.16	319.336	109.548	319.336	109.595	319.336	109.835	319.336	109.904	319.336	110.029	319.336	110.075	319.336	110.113
329.59	111.049	329.59	110.959	329.59	111.031	329.59	110.765	329.59	110.901	329.59	110.475	329.59	110.658	329.59	110.093	329.59	110.308	329.59	109.626	329.59	109.856	329.59	109.088	329.59	109.319	329.59	108.506	329.59	108.72	329.59	107.935	329.59	108.105	329.59	107.461	329.59	107.552	329.59	107.182	329.59	107.171	329.59	107.167	329.59	107.062	329.59	107.402	329.59	107.253	329.59	107.8	329.59	107.667	329.59	108.255	329.59	108.175	329.59	108.682	329.59	108.656	329.59	109.025	329.59	109.031	329.59	109.248	329.59	109.26	329.59	109.331
341.309	111.08	341.309	111.031	341.309	111.008	341.309	110.861	341.309	110.816	341.309	110.57	341.309	110.51	341.309	110.163	341.309	110.101	341.309	109.644	341.309	109.605	341.309	109.023	341.309	109.048	341.309	108.322	341.309	108.467	341.309	107.58	341.309	107.917	341.309	106.877	341.309	107.471	341.309	106.337	341.309	107.209	341.309	106.097	341.309	107.182	341.309	106.222	341.309	107.379	341.309	106.649	341.309	107.731	341.309	107.229	341.309	108.137	341.309	107.816	341.309	108.508	341.309	108.317	341.309	108.78	341.309	108.679	341.309	108.911	341.309	108.879
353.027	110.707	353.027	110.653	353.027	110.644	353.027	110.491	353.027	110.46	353.027	110.231	353.027	110.156	353.027	109.883	353.027	109.737	353.027	109.456	353.027	109.213	353.027	108.95	353.027	108.6	353.027	108.363	353.027	107.924	353.027	107.704	353.027	107.234	353.027	107.006	353.027	106.609	353.027	106.351	353.027	106.15	353.027	105.87	353.027	105.948	353.027	105.684	353.027	106.027	353.027	105.827	353.027	106.325	353.027	106.208	353.027	106.733	353.027	106.684	353.027	107.138	353.027	107.128	353.027	107.454	353.027	107.459	353.027	107.628	353.027	107.632
366.211	110.068	366.211	110.04	366.211	109.991	366.211	109.916	366.211	109.805	366.211	109.698	366.211	109.505	366.211	109.389	366.211	109.09	366.211	108.986	366.211	108.563	366.211	108.483	366.211	107.941	366.211	107.872	366.211	107.261	366.211	107.157	366.211	106.595	366.211	106.367	366.211	106.042	366.211	105.57	366.211	105.704	366.211	104.888	366.211	105.628	366.211	104.469	366.211	105.78	366.211	104.413	366.211	106.066	366.211	104.694	366.211	106.377	366.211	105.18	366.211	106.629	366.211	105.72	366.211	106.762	366.211	106.2	366.211	106.741	366.211	106.551
379.395	109.792	379.395	109.76	379.395	109.728	379.395	109.638	379.395	109.561	379.395	109.435	379.395	109.283	379.395	109.156	379.395	108.886	379.395	108.806	379.395	108.356	379.395	108.391	379.395	107.685	379.395	107.918	379.395	106.873	379.395	107.398	379.395	105.957	379.395	106.85	379.395	105.046	379.395	106.31	379.395	104.333	379.395	105.829	379.395	104.035	379.395	105.478	379.395	104.217	379.395	105.321	379.395	104.721	379.395	105.377	379.395	105.313	379.395	105.601	379.395	105.828	379.395	105.898	379.395	106.183	379.395	106.17	379.395	106.351	379.395	106.338
392.578	108.978	392.578	108.868	392.578	108.99	392.578	108.664	392.578	108.904	392.578	108.368	392.578	108.713	392.578	107.984	392.578	108.409	392.578	107.517	392.578	107.984	392.578	106.976	392.578	107.433	392.578	106.372	392.578	106.761	392.578	105.732	392.578	105.991	392.578	105.099	392.578	105.185	392.578	104.543	392.578	104.458	392.578	104.152	392.578	103.968	392.578	103.994	392.578	103.849	392.578	104.087	392.578	104.097	392.578	104.383	392.578	104.566	392.578	104.787	392.578	105.067	392.578	105.196	392.578	105.463	392.578	105.521	392.578	105.68	392.578	105.695
405.762	108.445	405.762	108.382	405.762	108.404	405.762	108.221	405.762	108.252	405.762	107.962	405.762	107.981	405.762	107.604	405.762	107.584	405.762	107.143	405.762	107.063	405.762	106.583	405.762	106.431	405.762	105.94	405.762	105.713	405.762	105.254	405.762	104.953	405.762	104.591	405.762	104.225	405.762	104.034	405.762	103.649	405.762	103.664	405.762	103.372	405.762	103.535	405.762	103.472	405.762	103.655	405.762	103.883	405.762	103.979	405.762	104.429	405.762	104.417	405.762	104.94	405.762	104.867	405.762	105.309	405.762	105.235	405.762	105.484	405.762	105.454
420.41	108.649	420.41	108.639	420.41	108.554	420.41	108.534	420.41	108.344	420.41	108.344	420.41	108.014	420.41	108.072	420.41	107.561	420.41	107.711	420.41	106.984	420.41	107.245	420.41	106.282	420.41	106.656	420.41	105.462	420.41	105.935	420.41	104.555	420.41	105.103	420.41	103.638	420.41	104.233	420.41	102.856	420.41	103.463	420.41	102.4	420.41	102.971	420.41	102.407	420.41	102.878	420.41	102.831	420.41	103.158	420.41	103.47	420.41	103.656	420.41	104.108	420.41	104.19	420.41	104.595	420.41	104.621	420.41	104.853	420.41	104.858
435.059	107.93	435.059	107.907	435.059	107.868	435.059	107.81	435.059	107.71	435.059	107.646	435.059	107.446	435.059	107.41	435.059	107.071	435.059	107.086	435.059	106.58	435.059	106.649	435.059	105.978	435.059	106.082	435.059	105.273	435.059	105.39	435.059	104.485	435.059	104.622	435.059	103.66	435.059	103.884	435.059	102.898	435.059	103.318	435.059	102.375	435.059	103.052	435.059	102.278	435.059	103.123	435.059	102.649	435.059	103.462	435.059	103.309	435.059	103.938	435.059	104.007	435.059	104.414	435.059	104.561	435.059	104.777	435.059	104.883	435.059	104.949
451.172	108.47	451.172	108.388	451.172	108.449	451.172	108.211	451.172	108.311	451.172	107.939	451.172	108.043	451.172	107.559	451.172	107.631	451.172	107.054	451.172	107.069	451.172	106.404	451.172	106.359	451.172	105.598	451.172	105.508	451.172	104.644	451.172	104.535	451.172	103.586	451.172	103.488	451.172	102.525	451.172	102.472	451.172	101.632	451.172	101.672	451.172	101.119	451.172	101.311	451.172	101.117	451.172	101.483	451.172	101.552	451.172	102.039	451.172	102.205	451.172	102.707	451.172	102.856	451.172	103.263	451.172	103.355	451.172	103.58	451.172	103.61
465.82	108.256	465.82	108.201	465.82	108.2	465.82	108.034	465.82	108.03	465.82	107.757	465.82	107.742	465.82	107.375	465.82	107.33	465.82	106.898	465.82	106.788	465.82	106.336	465.82	106.103	465.82	105.7	465.82	105.266	465.82	104.992	465.82	104.281	465.82	104.225	465.82	103.198	465.82	103.449	465.82	102.155	465.82	102.778	465.82	101.403	465.82	102.369	465.82	101.192	465.82	102.334	465.82	101.548	465.82	102.634	465.82	102.235	465.82	103.11	465.82	102.974	465.82	103.586	465.82	103.576	465.82	103.932	465.82	103.951	465.82	104.068
483.398	108.298	483.398	108.238	483.398	108.266	483.398	108.091	483.398	108.137	483.398	107.857	483.398	107.91	483.398	107.529	483.398	107.586	483.398	107.091	483.398	107.166	483.398	106.521	483.398	106.646	483.398	105.793	483.398	106.008	483.398	104.888	483.398	105.225	483.398	103.816	483.398	104.285	483.398	102.653	483.398	103.23	483.398	101.598	483.398	102.227	483.398	100.972	483.398	101.596	483.398	101.016	483.398	101.618	483.398	101.63	483.398	102.209	483.398	102.486	483.398	103.005	483.398	103.293	483.398	103.688	483.398	103.88	483.398	104.094	483.398	104.159
499.512	108.182	499.512	108.115	499.512	108.143	499.512	107.95	499.512	107.993	499.512	107.686	499.512	107.723	499.512	107.32	499.512	107.325	499.512	106.845	499.512	106.795	499.512	106.247	499.512	106.129	499.512	105.503	499.512	105.334	499.512	104.59	499.512	104.43	499.512	103.496	499.512	103.464	499.512	102.254	499.512	102.518	499.512	100.979	499.512	101.727	499.512	99.9204	499.512	101.266	499.512	99.4344	499.512	101.265	499.512	99.7221	499.512	101.673	499.512	100.575	499.512	102.263	499.512	101.576	499.512	102.776	499.512	102.408	499.512	103.024	499.512	102.909
517.09	108.218	517.09	108.196	517.09	108.15	517.09	108.084	517.09	107.99	517.09	107.877	517.09	107.731	517.09	107.566	517.09	107.369	517.09	107.137	517.09	106.902	517.09	106.576	517.09	106.332	517.09	105.861	517.09	105.653	517.09	104.973	517.09	104.856	517.09	103.901	517.09	103.938	517.09	102.675	517.09	102.926	517.09	101.429	517.09	101.942	517.09	100.478	517.09	101.249	517.09	100.224	517.09	101.13	517.09	100.744	517.09	101.595	517.09	101.666	517.09	102.335	517.09	102.575	517.09	103.02	517.09	103.228	517.09	103.448	517.09	103.527
536.133	107.255	536.133	107.18	536.133	107.183	536.133	106.987	536.133	106.948	536.133	106.71	536.133	106.55	536.133	106.382	536.133	106.009	536.133	106.024	536.133	105.363	536.133	105.622	536.133	104.655	536.133	105.126	536.133	103.918	536.133	104.467	536.133	103.171	536.133	103.598	536.133	102.436	536.133	102.534	536.133	101.776	536.133	101.392	536.133	101.315	536.133	100.412	536.133	101.192	536.133	99.9048	536.133	101.436	536.133	100.052	536.133	101.923	536.133	100.726	536.133	102.456	536.133	101.595	536.133	102.863	536.133	102.364	536.133	103.021	536.133	102.86
555.176	108.145	555.176	108.075	555.176	108.079	555.176	107.876	555.176	107.87	555.176	107.561	555.176	107.515	555.176	107.148	555.176	107.008	555.176	106.653	555.176	106.341	555.176	106.082	555.176	105.501	555.176	105.414	555.176	104.484	555.176	104.599	555.176	103.309	555.176	103.58	555.176	102.048	555.176	102.317	555.176	100.872	555.176	100.83	555.176	100.103	555.176	99.3067	555.176	100.074	555.176	98.2727	555.176	100.746	555.176	98.3794	555.176	101.697	555.176	99.5001	555.176	102.534	555.176	100.894	555.176	103.051	555.176	102.066	555.176	103.162	555.176	102.836
574.219	108.117	574.219	107.902	574.219	108.207	574.219	107.58	574.219	108.168	574.219	107.184	574.219	107.996	574.219	106.764	574.219	107.682	574.219	106.369	574.219	107.203	574.219	106.018	574.219	106.526	574.219	105.661	574.219	105.615	574.219	105.186	574.219	104.446	574.219	104.453	574.219	103.015	574.219	103.359	574.219	101.372	574.219	101.903	574.219	99.7417	574.219	100.305	574.219	98.71	574.219	99.1317	574.219	98.9043	574.219	98.9901	574.219	100.021	574.219	99.7714	574.219	101.252	574.219	100.861	574.219	102.133	574.219	101.808	574.219	102.519	574.219	102.396
594.727	107.835	594.727	107.58	594.727	107.915	594.727	107.171	594.727	107.814	594.727	106.642	594.727	107.541	594.727	106.036	594.727	107.114	594.727	105.382	594.727	106.557	594.727	104.696	594.727	105.889	594.727	103.979	594.727	105.117	594.727	103.236	594.727	104.231	594.727	102.469	594.727	103.208	594.727	101.686	594.727	102.012	594.727	100.909	594.727	100.664	594.727	100.209	594.727	99.4297	594.727	99.7896	594.727	99.0296	594.727	99.9449	594.727	99.8929	594.727	100.723	594.727	101.315	594.727	101.774	594.727	102.501	594.727	102.681	594.727	103.139	594.727	103.181
615.234	108.107	615.234	108.014	615.234	108.075	615.234	107.783	615.234	107.929	615.234	107.403	615.234	107.667	615.234	106.874	615.234	107.258	615.234	106.211	615.234	106.654	615.234	105.459	615.234	105.821	615.234	104.677	615.234	104.766	615.234	103.888	615.234	103.537	615.234	103.024	615.234	102.195	615.234	101.924	615.234	100.839	615.234	100.42	615.234	99.688	615.234	98.5877	615.234	99.0683	615.234	97.2525	615.234	99.1329	615.234	97.5981	615.234	99.7109	615.234	99.0679	615.234	100.512	615.234	100.489	615.234	101.271	615.234	101.439	615.234	101.769	615.234	101.855
637.207	108.001	637.207	107.895	637.207	108.028	637.207	107.719	637.207	107.96	637.207	107.473	637.207	107.776	637.207	107.133	637.207	107.446	637.207	106.67	637.207	106.94	637.207	106.083	637.207	106.252	637.207	105.414	637.207	105.379	637.207	104.703	637.207	104.293	637.207	103.902	637.207	102.901	637.207	102.831	637.207	101.068	637.207	101.229	637.207	98.7305	637.207	98.8224	637.207	96.2945	637.207	95.4539	637.207	95.3457	637.207	92.2317	637.207	96.6098	637.207	93.1016	637.207	98.3387	637.207	96.0324	637.207	99.505	637.207	98.2332	637.207	99.9013	637.207	99.4927
659.18	107.038	659.18	106.792	659.18	107.183	659.18	106.474	659.18	107.194	659.18	106.111	659.18	107.041	659.18	105.735	659.18	106.722	659.18	105.382	659.18	106.277	659.18	105.076	659.18	105.776	659.18	104.789	659.18	105.253	659.18	104.421	659.18	104.655	659.18	103.841	659.18	103.848	659.18	102.944	659.18	102.686	659.18	101.68	659.18	101.071	659.18	100.043	659.18	99.0553	659.18	98.1224	659.18	97.1835	659.18	96.4178	659.18	96.7503	659.18	96.1495	659.18	97.9101	659.18	97.4987	659.18	99.2614	659.18	99.0389	659.18	100.006	659.18	99.9373
682.617	107.337	682.617	107.353	682.617	107.204	682.617	107.235	682.617	106.97	682.617	106.981	682.617	106.659	682.617	106.598	682.617	106.302	682.617	106.105	682.617	105.947	682.617	105.516	682.617	105.627	682.617	104.823	682.617	105.312	682.617	103.997	682.617	104.869	682.617	103.03	682.617	104.116	682.617	101.957	682.617	102.912	682.617	100.808	682.617	101.229	682.617	99.5231	682.617	99.2219	682.617	98.004	682.617	97.3771	682.617	96.4688	682.617	96.5885	682.617	95.9529	682.617	97.206	682.617	97.0204	682.617	98.3519	682.617	98.4272	682.617	99.1491	682.617	99.2083
707.52	107.163	707.52	107.102	707.52	107.208	707.52	107.012	707.52	107.195	707.52	106.84	707.52	107.069	707.52	106.547	707.52	106.794	707.52	106.173	707.52	106.366	707.52	105.848	707.52	105.782	707.52	105.676	707.52	105.023	707.52	105.567	707.52	104.061	707.52	105.273	707.52	102.899	707.52	104.551	707.52	101.579	707.52	103.252	707.52	100.184	707.52	101.285	707.52	98.8046	707.52	98.5106	707.52	97.491	707.52	94.574	707.52	96.3341	707.52	89.0904	707.52	95.6412	707.52	87.8333	707.52	95.5583	707.52	92.035	707.52	95.4726	707.52	94.5292
732.422	105.711	732.422	105.307	732.422	106	732.422	104.847	732.422	106.172	732.422	104.445	732.422	106.248	732.422	104.228	732.422	106.244	732.422	104.281	732.422	106.145	732.422	104.616	732.422	105.912	732.422	105.143	732.422	105.497	732.422	105.67	732.422	104.844	732.422	105.951	732.422	103.872	732.422	105.791	732.422	102.466	732.422	105.108	732.422	100.61	732.422	103.966	732.422	98.8723	732.422	102.527	732.422	98.602	732.422	100.972	732.422	99.6579	732.422	99.5359	732.422	100.61	732.422	98.673	732.422	100.878	732.422	98.8014	732.422	100.474	732.422	99.6276
757.324	107.122	757.324	106.728	757.324	107.207	757.324	105.961	757.324	107.075	757.324	104.835	757.324	106.823	757.324	103.569	757.324	106.536	757.324	102.68	757.324	106.258	757.324	102.675	757.324	105.983	757.324	103.389	757.324	105.669	757.324	104.143	757.324	105.258	757.324	104.471	757.324	104.659	757.324	104.328	757.324	103.744	757.324	103.927	757.324	102.362	757.324	103.459	757.324	100.462	757.324	102.921	757.324	98.5567	757.324	102.228	757.324	98.2297	757.324	101.499	757.324	99.6528	757.324	101.15	757.324	101.096	757.324	101.387	757.324	101.807	757.324	101.794
785.156	107.645	785.156	107.236	785.156	107.79	785.156	106.598	785.156	107.673	785.156	105.842	785.156	107.321	785.156	105.152	785.156	106.793	785.156	104.647	785.156	106.158	785.156	104.251	785.156	105.481	785.156	103.82	785.156	104.793	785.156	103.284	785.156	104.081	785.156	102.624	785.156	103.285	785.156	101.868	785.156	102.271	785.156	101.084	785.156	100.826	785.156	100.26	785.156	98.6924	785.156	99.2873	785.156	95.8564	785.156	98.1819	785.156	94.0017	785.156	97.265	785.156	95.3756	785.156	97.053	785.156	97.3251	785.156	97.596	785.156	98.2726	785.156	98.2311
811.523	107.428	811.523	107.258	811.523	107.484	811.523	107.007	811.523	107.378	811.523	106.688	811.523	107.06	811.523	106.291	811.523	106.518	811.523	105.78	811.523	105.823	811.523	105.125	811.523	105.118	811.523	104.372	811.523	104.531	811.523	103.601	811.523	104.04	811.523	102.825	811.523	103.451	811.523	101.989	811.523	102.532	811.523	101.008	811.523	101.123	811.523	99.8391	811.523	99.1621	811.523	98.635	811.523	96.8825	811.523	97.7717	811.523	95.5339	811.523	97.5631	811.523	96.3311	811.523	97.9496	811.523	97.815	811.523	98.5473	811.523	98.7343	811.523	98.9182
840.82	106.911	840.82	106.657	840.82	107.031	840.82	106.285	840.82	107.025	840.82	105.869	840.82	106.897	840.82	105.506	840.82	106.638	840.82	105.227	840.82	106.257	840.82	104.973	840.82	105.81	840.82	104.704	840.82	105.357	840.82	104.459	840.82	104.864	840.82	104.263	840.82	104.159	840.82	104.016	840.82	103.023	840.82	103.495	840.82	101.305	840.82	102.474	840.82	99.0139	840.82	100.897	840.82	96.6141	840.82	99.022	840.82	95.5951	840.82	97.5058	840.82	96.506	840.82	97.0527	840.82	97.7032	840.82	97.5236	840.82	98.2701	840.82	98.126
870.117	107.475	870.117	107.313	870.117	107.393	870.117	106.972	870.117	107.066	870.117	106.541	870.117	106.546	870.117	106.074	870.117	105.904	870.117	105.574	870.117	105.215	870.117	105.082	870.117	104.594	870.117	104.7	870.117	104.202	870.117	104.493	870.117	104.087	870.117	104.344	870.117	104.048	870.117	103.96	870.117	103.744	870.117	103.061	870.117	102.866	870.117	101.562	870.117	101.197	870.117	99.6689	870.117	98.676	870.117	98.0401	870.117	96.2568	870.117	97.7556	870.117	96.7656	870.117	98.7991	870.117	98.9197	870.117	99.9929	870.117	100.302	870.117	100.599
900.879	107.938	900.879	107.664	900.879	107.961	900.879	107.15	900.879	107.759	900.879	106.462	900.879	107.331	900.879	105.687	900.879	106.634	900.879	104.912	900.879	105.685	900.879	104.206	900.879	104.709	900.879	103.617	900.879	104.069	900.879	103.168	900.879	103.856	900.879	102.901	900.879	103.653	900.879	102.914	900.879	102.955	900.879	103.107	900.879	101.625	900.879	102.983	900.879	99.9416	900.879	102.006	900.879	98.4173	900.879	99.9593	900.879	97.5379	900.879	97.4782	900.879	97.655	900.879	96.9954	900.879	98.6885	900.879	98.5795	900.879	99.671	900.879	99.7165
933.105	108.451	933.105	108.281	933.105	108.298	933.105	107.803	933.105	107.839	933.105	107.048	933.105	107.115	933.105	106.011	933.105	106.183	933.105	104.605	933.105	105.079	933.105	102.853	933.105	103.859	933.105	101.311	933.105	102.849	933.105	100.934	933.105	102.614	933.105	101.707	933.105	103.042	933.105	102.649	933.105	103.397	933.105	102.98	933.105	103.141	933.105	102.429	933.105	102.008	933.105	101.063	933.105	99.977	933.105	99.0847	933.105	97.7912	933.105	96.9989	933.105	97.5037	933.105	96.5357	933.105	98.9075	933.105	98.1803	933.105	99.8773	933.105	99.6346
965.332	107.75	965.332	107.535	965.332	107.829	965.332	107.183	965.332	107.77	965.332	106.667	965.332	107.534	965.332	105.928	965.332	107.03	965.332	104.966	965.332	106.152	965.332	103.94	965.332	104.863	965.332	103.078	965.332	103.307	965.332	102.442	965.332	101.945	965.332	101.86	965.332	101.25	965.332	101.18	965.332	100.903	965.332	100.52	965.332	100.221	965.332	100.125	965.332	98.9504	965.332	99.8625	965.332	97.3174	965.332	99.1645	965.332	95.9579	965.332	97.6069	965.332	95.7958	965.332	95.8803	965.332	96.8075	965.332	96.0462	965.332	97.5995	965.332	97.2681
1,000.49	107.826	1,000.49	107.73	1,000.49	107.531	1,000.49	107.289	1,000.49	106.922	1,000.49	106.625	1,000.49	106.196	1,000.49	105.869	1,000.49	105.525	1,000.49	105.024	1,000.49	104.876	1,000.49	103.944	1,000.49	104.055	1,000.49	102.606	1,000.49	103.008	1,000.49	101.504	1,000.49	102.058	1,000.49	101.298	1,000.49	101.707	1,000.49	101.787	1,000.49	101.914	1,000.49	102.096	1,000.49	101.973	1,000.49	101.567	1,000.49	101.241	1,000.49	100.143	1,000.49	99.4015	1,000.49	98.2386	1,000.49	96.5281	1,000.49	96.3132	1,000.49	94.1365	1,000.49	94.8982	1,000.49	94.5643	1,000.49	94.9176	1,000.49	95.6966	1,000.49	95.7186
1,035.64	108.275	1,035.64	108.205	1,035.64	108.067	1,035.64	107.816	1,035.64	107.646	1,035.64	107.12	1,035.64	107.072	1,035.64	106.124	1,035.64	106.376	1,035.64	104.74	1,035.64	105.486	1,035.64	102.817	1,035.64	104.201	1,035.64	100.367	1,035.64	102.472	1,035.64	98.2658	1,035.64	101.001	1,035.64	98.3892	1,035.64	100.862	1,035.64	100.352	1,035.64	101.511	1,035.64	102.178	1,035.64	101.837	1,035.64	102.95	1,035.64	101.405	1,035.64	102.536	1,035.64	100.095	1,035.64	101.107	1,035.64	98.1101	1,035.64	99.1292	1,035.64	96.639	1,035.64	97.6429	1,035.64	96.9057	1,035.64	97.5144	1,035.64	97.7177	1,035.64	97.8996
1,072.27	107.363	1,072.27	107.296	1,072.27	107.332	1,072.27	107.158	1,072.27	107.124	1,072.27	106.825	1,072.27	106.702	1,072.27	106.029	1,072.27	106.074	1,072.27	104.525	1,072.27	105.151	1,072.27	102.449	1,072.27	103.69	1,072.27	100.59	1,072.27	101.568	1,072.27	99.7092	1,072.27	99.3374	1,072.27	99.5304	1,072.27	98.4123	1,072.27	99.4873	1,072.27	98.9866	1,072.27	99.396	1,072.27	99.7102	1,072.27	99.1937	1,072.27	99.8695	1,072.27	98.8135	1,072.27	99.1332	1,072.27	97.9416	1,072.27	97.2536	1,072.27	96.3976	1,072.27	94.85	1,072.27	94.8374	1,072.27	94.0864	1,072.27	94.4553	1,072.27	94.6653	1,072.27	94.7996
1,108.89	106.335	1,108.89	106.543	1,108.89	106.195	1,108.89	106.709	1,108.89	106.149	1,108.89	106.652	1,108.89	106.122	1,108.89	106.097	1,108.89	106.005	1,108.89	104.831	1,108.89	105.642	1,108.89	102.982	1,108.89	104.751	1,108.89	101.151	1,108.89	102.99	1,108.89	99.8752	1,108.89	100.133	1,108.89	98.9625	1,108.89	96.6365	1,108.89	98.1103	1,108.89	95.0719	1,108.89	98.12	1,108.89	96.0971	1,108.89	99.5631	1,108.89	97.3253	1,108.89	100.477	1,108.89	97.99	1,108.89	99.6786	1,108.89	97.6798	1,108.89	97.1495	1,108.89	96.3751	1,108.89	93.4209	1,108.89	95.0394	1,108.89	91.45	1,108.89	94.2492	1,108.89	92.9589
1,148.44	106.976	1,148.44	107.065	1,148.44	106.74	1,148.44	106.998	1,148.44	106.42	1,148.44	106.647	1,148.44	106.161	1,148.44	105.772	1,148.44	105.901	1,148.44	104.263	1,148.44	105.369	1,148.44	102.33	1,148.44	104.422	1,148.44	100.354	1,148.44	102.974	1,148.44	98.8349	1,148.44	100.483	1,148.44	98.45	1,148.44	96.7543	1,148.44	98.5479	1,148.44	94.6564	1,148.44	98.2203	1,148.44	95.6822	1,148.44	97.9942	1,148.44	96.8103	1,148.44	98.2483	1,148.44	97.2515	1,148.44	97.9798	1,148.44	96.7618	1,148.44	96.1651	1,148.44	95.6001	1,148.44	94.0484	1,148.44	95.1671	1,148.44	94.4902	1,148.44	95.5582	1,148.44	95.4721
1,189.45	105.849	1,189.45	105.749	1,189.45	106.051	1,189.45	105.645	1,189.45	106.142	1,189.45	105.243	1,189.45	105.81	1,189.45	104.499	1,189.45	105.039	1,189.45	103.794	1,189.45	104.319	1,189.45	103.331	1,189.45	104.081	1,189.45	102.658	1,189.45	103.818	1,189.45	101.399	1,189.45	102.57	1,189.45	100.19	1,189.45	99.7838	1,189.45	99.883	1,189.45	96.1267	1,189.45	99.5246	1,189.45	94.1594	1,189.45	98.8303	1,189.45	92.814	1,189.45	98.4222	1,189.45	89.8974	1,189.45	98.2641	1,189.45	91.4523	1,189.45	97.3053	1,189.45	93.9887	1,189.45	95.0492	1,189.45	93.7715	1,189.45	92.4149	1,189.45	92.4669	1,189.45	91.571
1,230.47	106.259	1,230.47	106.396	1,230.47	105.888	1,230.47	106.01	1,230.47	105.555	1,230.47	105.051	1,230.47	105.422	1,230.47	104.016	1,230.47	105.451	1,230.47	103.536	1,230.47	105.447	1,230.47	103.358	1,230.47	105.214	1,230.47	102.383	1,230.47	104.518	1,230.47	99.6556	1,230.47	103.022	1,230.47	96.4283	1,230.47	100.612	1,230.47	97.0951	1,230.47	97.6894	1,230.47	98.8946	1,230.47	94.9194	1,230.47	99.6344	1,230.47	93.2614	1,230.47	99.7528	1,230.47	93.8656	1,230.47	99.4852	1,230.47	94.0508	1,230.47	98.4278	1,230.47	93.5612	1,230.47	96.706	1,230.47	94.4792	1,230.47	95.9464	1,230.47	95.9002	1,230.47	96.2579
1,274.41	106.318	1,274.41	105.86	1,274.41	106.298	1,274.41	105.223	1,274.41	105.887	1,274.41	104.939	1,274.41	105.296	1,274.41	105.067	1,274.41	104.628	1,274.41	104.835	1,274.41	103.963	1,274.41	103.649	1,274.41	103.352	1,274.41	101.928	1,274.41	102.756	1,274.41	100.417	1,274.41	102.06	1,274.41	98.5636	1,274.41	101.016	1,274.41	96.4705	1,274.41	99.6838	1,274.41	96.2905	1,274.41	98.5018	1,274.41	97.7068	1,274.41	97.115	1,274.41	99.2254	1,274.41	95.2793	1,274.41	99.5657	1,274.41	94.1626	1,274.41	98.2415	1,274.41	93.6888	1,274.41	96.1144	1,274.41	94.0786	1,274.41	95.592	1,274.41	95.751	1,274.41	96.306
1,319.82	106.765	1,319.82	106.54	1,319.82	106.523	1,319.82	106.094	1,319.82	105.87	1,319.82	105.736	1,319.82	104.996	1,319.82	105.174	1,319.82	104.003	1,319.82	104.012	1,319.82	103.076	1,319.82	103.109	1,319.82	102.589	1,319.82	103.185	1,319.82	102.446	1,319.82	102.535	1,319.82	101.887	1,319.82	99.8078	1,319.82	100.023	1,319.82	96.4977	1,319.82	96.841	1,319.82	95.275	1,319.82	94.3361	1,319.82	95.174	1,319.82	92.2208	1,319.82	96.358	1,319.82	89.6234	1,319.82	98.4013	1,319.82	91.6097	1,319.82	99.2711	1,319.82	93.5453	1,319.82	98.0974	1,319.82	94.2341	1,319.82	96.3687	1,319.82	96.1032	1,319.82	96.7366
1,366.7	107.105	1,366.7	106.817	1,366.7	106.803	1,366.7	106.249	1,366.7	105.981	1,366.7	105.841	1,366.7	104.959	1,366.7	105.521	1,366.7	103.913	1,366.7	104.836	1,366.7	103.035	1,366.7	103.941	1,366.7	102.881	1,366.7	103.224	1,366.7	103.484	1,366.7	102.416	1,366.7	103.628	1,366.7	101.039	1,366.7	102.78	1,366.7	99.7897	1,366.7	101.428	1,366.7	98.951	1,366.7	99.5804	1,366.7	98.2234	1,366.7	96.6511	1,366.7	97.7113	1,366.7	92.8337	1,366.7	97.4097	1,366.7	92.6049	1,366.7	97.5732	1,366.7	93.5225	1,366.7	98.0477	1,366.7	94.2696	1,366.7	98.0877	1,366.7	96.5414	1,366.7	97.7014
1,413.57	107.161	1,413.57	106.699	1,413.57	107.264	1,413.57	106.411	1,413.57	106.648	1,413.57	106.097	1,413.57	105.64	1,413.57	105.333	1,413.57	104.831	1,413.57	104.774	1,413.57	104.197	1,413.57	104.458	1,413.57	103.203	1,413.57	102.66	1,413.57	102.306	1,413.57	99.0183	1,413.57	102.476	1,413.57	96.1903	1,413.57	102.515	1,413.57	95.8624	1,413.57	100.944	1,413.57	97.7393	1,413.57	99.1203	1,413.57	98.6115	1,413.57	99.2032	1,413.57	98.1872	1,413.57	98.231	1,413.57	99.0765	1,413.57	94.4241	1,413.57	100.252	1,413.57	94.45	1,413.57	99.3299	1,413.57	96.1212	1,413.57	96.6771	1,413.57	95.6361	1,413.57	95.0141
1,463.38	107.771	1,463.38	108.01	1,463.38	107.595	1,463.38	107.764	1,463.38	107.592	1,463.38	106.766	1,463.38	107.037	1,463.38	105.643	1,463.38	105.139	1,463.38	105.052	1,463.38	102.88	1,463.38	103.891	1,463.38	102.201	1,463.38	101.102	1,463.38	101.818	1,463.38	98.7521	1,463.38	100.712	1,463.38	98.8729	1,463.38	100.571	1,463.38	98.3846	1,463.38	101.442	1,463.38	96.9511	1,463.38	101.796	1,463.38	97.3192	1,463.38	101.186	1,463.38	99.0402	1,463.38	98.7399	1,463.38	100.132	1,463.38	93.621	1,463.38	100.096	1,463.38	95.2219	1,463.38	98.8615	1,463.38	97.7409	1,463.38	97.3492	1,463.38	97.6704	1,463.38	96.9938
1,516.11	107.667	1,516.11	107.972	1,516.11	107.684	1,516.11	107.57	1,516.11	107.81	1,516.11	105.847	1,516.11	107.146	1,516.11	104.155	1,516.11	105.636	1,516.11	104.177	1,516.11	104.261	1,516.11	104.285	1,516.11	103.313	1,516.11	102.43	1,516.11	102.245	1,516.11	100.512	1,516.11	101.511	1,516.11	99.3496	1,516.11	101.261	1,516.11	99.5582	1,516.11	100.178	1,516.11	98.4008	1,516.11	98.622	1,516.11	96.5564	1,516.11	99.3796	1,516.11	97.8915	1,516.11	99.1256	1,516.11	98.1515	1,516.11	93.3387	1,516.11	97.9912	1,516.11	89.5101	1,516.11	99.628	1,516.11	97.1282	1,516.11	100.301	1,516.11	99.2628	1,516.11	99.9273
1,568.85	108.429	1,568.85	108.647	1,568.85	107.945	1,568.85	107.859	1,568.85	107.634	1,568.85	106.408	1,568.85	107.135	1,568.85	105.844	1,568.85	106.151	1,568.85	105.256	1,568.85	104.7	1,568.85	103.285	1,568.85	103.311	1,568.85	102.028	1,568.85	102.169	1,568.85	102.275	1,568.85	100.802	1,568.85	100.552	1,568.85	99.7687	1,568.85	98.5811	1,568.85	99.4746	1,568.85	98.9898	1,568.85	98.8389	1,568.85	98.9666	1,568.85	99.0759	1,568.85	97.4327	1,568.85	98.9241	1,568.85	96.0438	1,568.85	96.2313	1,568.85	95.4004	1,568.85	92.5683	1,568.85	96.7533	1,568.85	93.9102	1,568.85	98.3244	1,568.85	96.4831	1,568.85	98.1884
1,624.51	108.452	1,624.51	108.366	1,624.51	107.989	1,624.51	107.36	1,624.51	107.586	1,624.51	106.411	1,624.51	107.045	1,624.51	106.722	1,624.51	105.971	1,624.51	106.135	1,624.51	104.906	1,624.51	103.489	1,624.51	103.829	1,624.51	101.491	1,624.51	101.794	1,624.51	101.318	1,624.51	99.5932	1,624.51	99.2883	1,624.51	100.094	1,624.51	97.1327	1,624.51	100.599	1,624.51	97.7187	1,624.51	99.1328	1,624.51	97.4014	1,624.51	97.7537	1,624.51	96.4292	1,624.51	97.0033	1,624.51	96.3744	1,624.51	94.8915	1,624.51	96.3361	1,624.51	91.8469	1,624.51	96.8264	1,624.51	95.0587	1,624.51	98.8847	1,624.51	99.2914	1,624.51	100.242
1,681.64	109.837	1,681.64	109.034	1,681.64	109.246	1,681.64	107.474	1,681.64	107.807	1,681.64	107.376	1,681.64	106.563	1,681.64	108.014	1,681.64	106.22	1,681.64	106.509	1,681.64	105.929	1,681.64	103.645	1,681.64	104.676	1,681.64	104.157	1,681.64	102.976	1,681.64	103.976	1,681.64	101.268	1,681.64	100.593	1,681.64	99.1254	1,681.64	96.0201	1,681.64	96.713	1,681.64	94.0524	1,681.64	95.9664	1,681.64	93.3003	1,681.64	97.8582	1,681.64	91.7928	1,681.64	96.3443	1,681.64	92.84	1,681.64	93.9452	1,681.64	96.7968	1,681.64	96.0864	1,681.64	97.241	1,681.64	95.432	1,681.64	96.8563	1,681.64	96.2711	1,681.64	97.6874
1,741.7	109.882	1,741.7	109.258	1,741.7	109.256	1,741.7	108.124	1,741.7	108.1	1,741.7	108.081	1,741.7	106.993	1,741.7	107.761	1,741.7	105.637	1,741.7	105.44	1,741.7	104.062	1,741.7	104.152	1,741.7	103.223	1,741.7	104.225	1,741.7	102.71	1,741.7	102.218	1,741.7	101.204	1,741.7	99.3572	1,741.7	99.1436	1,741.7	98.419	1,741.7	97.5697	1,741.7	96.9976	1,741.7	94.5259	1,741.7	96.6222	1,741.7	93.3056	1,741.7	98.1041	1,741.7	93.4357	1,741.7	95.1361	1,741.7	90.1076	1,741.7	92.6535	1,741.7	96.1761	1,741.7	96.9705	1,741.7	98.1296	1,741.7	97.867	1,741.7	99.0056	1,741.7	98.653
1,803.22	110.153	1,803.22	109.649	1,803.22	110.019	1,803.22	108.954	1,803.22	109.283	1,803.22	107.898	1,803.22	108.056	1,803.22	106.163	1,803.22	105.903	1,803.22	104.176	1,803.22	103.644	1,803.22	103.313	1,803.22	102.567	1,803.22	102.366	1,803.22	102.434	1,803.22	100.924	1,803.22	102.357	1,803.22	101.35	1,803.22	101.218	1,803.22	100.606	1,803.22	98.84	1,803.22	95.356	1,803.22	97.0188	1,803.22	95.0119	1,803.22	97.4991	1,803.22	99.8851	1,803.22	98.3868	1,803.22	97.05	1,803.22	94.8575	1,803.22	92.0191	1,803.22	91.3967	1,803.22	97.1975	1,803.22	95.9802	1,803.22	97.746	1,803.22	97.7998	1,803.22	97.9215
1,866.21	109.801	1,866.21	109.785	1,866.21	109.774	1,866.21	109.446	1,866.21	109.456	1,866.21	107.795	1,866.21	108.117	1,866.21	104.823	1,866.21	105.879	1,866.21	103.706	1,866.21	104.242	1,866.21	104.418	1,866.21	102.657	1,866.21	103.298	1,866.21	101.506	1,866.21	100.791	1,866.21	101.24	1,866.21	98.9392	1,866.21	99.5702	1,866.21	99.1082	1,866.21	97.9491	1,866.21	97.3787	1,866.21	97.6538	1,866.21	93.8408	1,866.21	96.5561	1,866.21	99.0967	1,866.21	98.0366	1,866.21	98.8056	1,866.21	96.4079	1,866.21	90.6474	1,866.21	88.6614	1,866.21	94.046	1,866.21	93.1199	1,866.21	95.9409	1,866.21	95.4838	1,866.21	95.6354
1,932.13	108.553	1,932.13	108.927	1,932.13	108.951	1,932.13	108.981	1,932.13	109.193	1,932.13	106.991	1,932.13	108.226	1,932.13	104.481	1,932.13	106.513	1,932.13	104.939	1,932.13	104.826	1,932.13	104.235	1,932.13	102.476	1,932.13	100.505	1,932.13	100.54	1,932.13	99.1651	1,932.13	100.387	1,932.13	98.9676	1,932.13	99.1789	1,932.13	97.5749	1,932.13	97.2987	1,932.13	97.6049	1,932.13	96.92	1,932.13	95.8443	1,932.13	95.829	1,932.13	96.6768	1,932.13	96.5867	1,932.13	97.253	1,932.13	95.0866	1,932.13	91.7933	1,932.13	85.5746	1,932.13	90.2595	1,932.13	91.6592	1,932.13	94.391	1,932.13	94.9254	1,932.13	95.2914
1,999.51	108.468	1,999.51	108.661	1,999.51	108.5	1,999.51	108.623	1,999.51	108.444	1,999.51	107.551	1,999.51	107.907	1,999.51	106.432	1,999.51	106.462	1,999.51	104.884	1,999.51	104.679	1,999.51	102.599	1,999.51	102.992	1,999.51	102.113	1,999.51	100.771	1,999.51	101.946	1,999.51	99.3504	1,999.51	98.822	1,999.51	98.9707	1,999.51	96.9872	1,999.51	97.7798	1,999.51	97.4901	1,999.51	97.0223	1,999.51	94.7659	1,999.51	96.9044	1,999.51	94.3513	1,999.51	96.2009	1,999.51	96.3517	1,999.51	93.9894	1,999.51	93.7911	1,999.51	88.6452	1,999.51	91.7265	1,999.51	88.1392	1,999.51	94.9013	1,999.51	94.7839	1,999.51	96.0108
2,069.82	109.649	2,069.82	109.027	2,069.82	109.283	2,069.82	107.93	2,069.82	109.066	2,069.82	107.63	2,069.82	108.863	2,069.82	107.653	2,069.82	107.913	2,069.82	106.559	2,069.82	106.4	2,069.82	104.17	2,069.82	104.255	2,069.82	100.909	2,069.82	102.679	2,069.82	98.8192	2,069.82	101.997	2,069.82	98.2003	2,069.82	100.245	2,069.82	95.0519	2,069.82	97.6767	2,069.82	96.1704	2,069.82	97.2733	2,069.82	96.8382	2,069.82	97.0298	2,069.82	94.1341	2,069.82	96.8195	2,069.82	96.1561	2,069.82	95.6089	2,069.82	94.9195	2,069.82	90.1375	2,069.82	91.7771	2,069.82	91.2676	2,069.82	95.287	2,069.82	95.9668	2,069.82	96.8646
2,143.07	110.043	2,143.07	108.992	2,143.07	109.579	2,143.07	107.554	2,143.07	108.485	2,143.07	107.686	2,143.07	107.523	2,143.07	107.966	2,143.07	106.667	2,143.07	106.338	2,143.07	105.786	2,143.07	103.202	2,143.07	104.581	2,143.07	102.119	2,143.07	102.007	2,143.07	101.627	2,143.07	99.8045	2,143.07	99.5352	2,143.07	98.8509	2,143.07	95.0096	2,143.07	96.0124	2,143.07	91.9576	2,143.07	95.9737	2,143.07	96.378	2,143.07	96.0905	2,143.07	95.23	2,143.07	95.6584	2,143.07	94.1335	2,143.07	94.025	2,143.07	95.5154	2,143.07	87.0531	2,143.07	93.5221	2,143.07	79.8649	2,143.07	93.6236	2,143.07	92.0238	2,143.07	94.9812
2,219.24	109.426	2,219.24	108.814	2,219.24	109.548	2,219.24	108.165	2,219.24	108.665	2,219.24	106.786	2,219.24	107.265	2,219.24	105.862	2,219.24	105.753	2,219.24	104.439	2,219.24	104.723	2,219.24	102.636	2,219.24	103.398	2,219.24	102.015	2,219.24	101.599	2,219.24	98.7843	2,219.24	101.11	2,219.24	97.0465	2,219.24	99.1109	2,219.24	99.0155	2,219.24	94.4432	2,219.24	95.0836	2,219.24	95.1699	2,219.24	92.271	2,219.24	96.0822	2,219.24	96.8772	2,219.24	92.9396	2,219.24	95.4542	2,219.24	94.3954	2,219.24	92.6797	2,219.24	92.1024	2,219.24	92.654	2,219.24	76.1609	2,219.24	91.6967	2,219.24	90.5611	2,219.24	92.3606
2,296.88	108.418	2,296.88	108.687	2,296.88	108.676	2,296.88	108.547	2,296.88	108.408	2,296.88	107.008	2,296.88	107.359	2,296.88	104.809	2,296.88	106.092	2,296.88	103.263	2,296.88	104.462	2,296.88	103.305	2,296.88	102.682	2,296.88	102.54	2,296.88	101.827	2,296.88	100.633	2,296.88	101.206	2,296.88	99.8679	2,296.88	98.758	2,296.88	99.6449	2,296.88	95.7534	2,296.88	96.9594	2,296.88	94.1848	2,296.88	92.5939	2,296.88	95.0969	2,296.88	97.0806	2,296.88	91.9874	2,296.88	97.0634	2,296.88	92.5894	2,296.88	90.8035	2,296.88	92.3429	2,296.88	93.0275	2,296.88	85.0373	2,296.88	91.3614	2,296.88	84.3069	2,296.88	87.4228
2,378.91	105.962	2,378.91	106.264	2,378.91	106.533	2,378.91	106.837	2,378.91	107.027	2,378.91	105.753	2,378.91	107.179	2,378.91	104.123	2,378.91	106.271	2,378.91	103.851	2,378.91	104.292	2,378.91	103.36	2,378.91	102.408	2,378.91	102.189	2,378.91	99.7154	2,378.91	98.5982	2,378.91	96.3476	2,378.91	92.4424	2,378.91	95.4979	2,378.91	94.5714	2,378.91	96.7021	2,378.91	97.1038	2,378.91	92.0931	2,378.91	92.1702	2,378.91	91.2046	2,378.91	91.6399	2,378.91	91.2788	2,378.91	95.3372	2,378.91	92.549	2,378.91	88.1868	2,378.91	93.1499	2,378.91	88.5237	2,378.91	90.0078	2,378.91	91.91	2,378.91	88.7648	2,378.91	91.2306
2,462.4	109.17	2,462.4	108.85	2,462.4	108.141	2,462.4	107.543	2,462.4	106.847	2,462.4	106.597	2,462.4	106.203	2,462.4	106.293	2,462.4	105.805	2,462.4	105.82	2,462.4	105.402	2,462.4	103.904	2,462.4	103.48	2,462.4	99.8923	2,462.4	99.7867	2,462.4	100.144	2,462.4	96.9749	2,462.4	100.153	2,462.4	97.1018	2,462.4	95.3734	2,462.4	98.1206	2,462.4	97.1037	2,462.4	95.0084	2,462.4	97.0592	2,462.4	89.0903	2,462.4	90.5534	2,462.4	91.1324	2,462.4	97.5455	2,462.4	97.1512	2,462.4	96.6534	2,462.4	96.5996	2,462.4	87.2172	2,462.4	90.4126	2,462.4	92.9084	2,462.4	93.6262	2,462.4	95.657
2,548.83	110.089	2,548.83	109.612	2,548.83	109.21	2,548.83	107.642	2,548.83	108.001	2,548.83	106.66	2,548.83	106.257	2,548.83	106.703	2,548.83	105.789	2,548.83	105.25	2,548.83	105.681	2,548.83	102.834	2,548.83	104.171	2,548.83	101.317	2,548.83	103.215	2,548.83	99.4037	2,548.83	99.216	2,548.83	96.2413	2,548.83	96.0003	2,548.83	92.8374	2,548.83	98.6476	2,548.83	94.0456	2,548.83	96.2371	2,548.83	96.54	2,548.83	91.8291	2,548.83	91.889	2,548.83	89.9767	2,548.83	97.0036	2,548.83	96.2028	2,548.83	97.8261	2,548.83	96.0212	2,548.83	90.9625	2,548.83	91.2651	2,548.83	93.4391	2,548.83	94.2616	2,548.83	95.6264
2,639.65	110.228	2,639.65	109.81	2,639.65	110.248	2,639.65	109.232	2,639.65	109.373	2,639.65	108.667	2,639.65	108.111	2,639.65	107.39	2,639.65	106.977	2,639.65	105.771	2,639.65	105.4	2,639.65	103.753	2,639.65	104.934	2,639.65	102.05	2,639.65	102.906	2,639.65	101.156	2,639.65	95.5958	2,639.65	99.6626	2,639.65	94.4315	2,639.65	97.3154	2,639.65	97.7201	2,639.65	92.4885	2,639.65	95.3479	2,639.65	96.4674	2,639.65	94.6065	2,639.65	95.3502	2,639.65	94.7785	2,639.65	94.6551	2,639.65	92.4057	2,639.65	97.992	2,639.65	94.9077	2,639.65	93.8287	2,639.65	90.2143	2,639.65	93.0481	2,639.65	94.6264	2,639.65	94.4892
2,731.93	109.418	2,731.93	109.186	2,731.93	109.797	2,731.93	109.222	2,731.93	109.884	2,731.93	108.621	2,731.93	109.063	2,731.93	107.199	2,731.93	107.439	2,731.93	105.674	2,731.93	106.4	2,731.93	104.177	2,731.93	105.305	2,731.93	103.565	2,731.93	103.362	2,731.93	100.823	2,731.93	100.786	2,731.93	96.7156	2,731.93	98.9033	2,731.93	97.9078	2,731.93	99.3095	2,731.93	96.066	2,731.93	95.3403	2,731.93	95.0361	2,731.93	93.2914	2,731.93	96.258	2,731.93	95.098	2,731.93	93.9542	2,731.93	93.5766	2,731.93	95.8752	2,731.93	94.0359	2,731.93	92.5503	2,731.93	89.4132	2,731.93	93.9205	2,731.93	92.1136	2,731.93	94.6818
2,828.61	109.437	2,828.61	109.728	2,828.61	109.445	2,828.61	110.228	2,828.61	109.784	2,828.61	109.972	2,828.61	109.52	2,828.61	108.407	2,828.61	108.404	2,828.61	106.541	2,828.61	106.831	2,828.61	105.739	2,828.61	106.252	2,828.61	104.418	2,828.61	103.423	2,828.61	101.065	2,828.61	99.7405	2,828.61	98.1123	2,828.61	100.555	2,828.61	96.8878	2,828.61	99.8144	2,828.61	94.5586	2,828.61	96.7775	2,828.61	95.9549	2,828.61	94.1274	2,828.61	96.227	2,828.61	95.0682	2,828.61	95.7473	2,828.61	95.0198	2,828.61	97.8565	2,828.61	97.2517	2,828.61	94.4466	2,828.61	91.9734	2,828.61	95.5211	2,828.61	92.9663	2,828.61	96.5894
2,928.22	110.108	2,928.22	111.163	2,928.22	109.746	2,928.22	110.915	2,928.22	110.11	2,928.22	110.319	2,928.22	110.205	2,928.22	109.201	2,928.22	108.911	2,928.22	108.184	2,928.22	107.233	2,928.22	107.431	2,928.22	106.362	2,928.22	103.924	2,928.22	102.97	2,928.22	100.227	2,928.22	103.335	2,928.22	99.9079	2,928.22	101.787	2,928.22	99.3561	2,928.22	98.718	2,928.22	96.4723	2,928.22	96.3124	2,928.22	95.2931	2,928.22	93.0524	2,928.22	98.5035	2,928.22	94.0423	2,928.22	96.8793	2,928.22	94.2666	2,928.22	98.2145	2,928.22	97.0551	2,928.22	94.4233	2,928.22	93.8741	2,928.22	97.5486	2,928.22	93.4659	2,928.22	97.8609
3,030.76	111.64	3,030.76	112.098	3,030.76	110.771	3,030.76	111.379	3,030.76	110.749	3,030.76	110.461	3,030.76	110.955	3,030.76	109.875	3,030.76	109.343	3,030.76	109.402	3,030.76	108.426	3,030.76	106.596	3,030.76	107.131	3,030.76	103.998	3,030.76	105.648	3,030.76	104.182	3,030.76	105.444	3,030.76	101.711	3,030.76	101.996	3,030.76	98.8959	3,030.76	96.0967	3,030.76	96.3471	3,030.76	93.1234	3,030.76	95.6961	3,030.76	95.3116	3,030.76	98.2283	3,030.76	91.7892	3,030.76	96.55	3,030.76	93.9318	3,030.76	99.4692	3,030.76	98.4314	3,030.76	95.5175	3,030.76	96.0311	3,030.76	96.3791	3,030.76	94.2498	3,030.76	99.7918
3,137.7	112.472	3,137.7	112.279	3,137.7	111.677	3,137.7	111.561	3,137.7	110.743	3,137.7	110.693	3,137.7	110.236	3,137.7	110.39	3,137.7	109.289	3,137.7	109.327	3,137.7	109.649	3,137.7	106.407	3,137.7	107.617	3,137.7	105.929	3,137.7	105.068	3,137.7	104.476	3,137.7	104.836	3,137.7	99.9723	3,137.7	100.637	3,137.7	99.3595	3,137.7	98.5058	3,137.7	96.8828	3,137.7	97.6728	3,137.7	92.2637	3,137.7	92.5876	3,137.7	98.0254	3,137.7	93.2709	3,137.7	95.8051	3,137.7	90.0622	3,137.7	97.6495	3,137.7	96.9808	3,137.7	96.7038	3,137.7	97.2234	3,137.7	94.1541	3,137.7	95.3433	3,137.7	100.014
3,249.02	111.665	3,249.02	111.126	3,249.02	111.777	3,249.02	111.142	3,249.02	111.37	3,249.02	111.001	3,249.02	110.068	3,249.02	110.602	3,249.02	108.762	3,249.02	109.689	3,249.02	109.778	3,249.02	108.599	3,249.02	107.787	3,249.02	106.936	3,249.02	106.939	3,249.02	102.392	3,249.02	105.377	3,249.02	97.5912	3,249.02	97.3423	3,249.02	96.5789	3,249.02	96.0288	3,249.02	97.3488	3,249.02	98.0579	3,249.02	93.7915	3,249.02	94.3309	3,249.02	97.2542	3,249.02	92.977	3,249.02	96.6872	3,249.02	95.4942	3,249.02	98.5029	3,249.02	93.3924	3,249.02	98.3178	3,249.02	97.3702	3,249.02	95.4004	3,249.02	93.5076	3,249.02	100.389
3,363.28	110.316	3,363.28	109.943	3,363.28	110.877	3,363.28	110.18	3,363.28	111.005	3,363.28	110.394	3,363.28	109.828	3,363.28	110.308	3,363.28	109.202	3,363.28	109.468	3,363.28	110.144	3,363.28	108.069	3,363.28	108.71	3,363.28	104.513	3,363.28	106.274	3,363.28	100.947	3,363.28	101.127	3,363.28	99.9841	3,363.28	85.7832	3,363.28	97.1048	3,363.28	92.905	3,363.28	97.7652	3,363.28	92.1343	3,363.28	94.6495	3,363.28	88.3862	3,363.28	96.3343	3,363.28	92.3108	3,363.28	96.5545	3,363.28	92.8827	3,363.28	95.5113	3,363.28	96.7333	3,363.28	96.6572	3,363.28	94.882	3,363.28	93.3524	3,363.28	94.9167	3,363.28	96.4826
3,481.93	110.594	3,481.93	110.407	3,481.93	110.233	3,481.93	110.539	3,481.93	110.202	3,481.93	110.895	3,481.93	109.694	3,481.93	110.567	3,481.93	109.823	3,481.93	109.394	3,481.93	109.588	3,481.93	106.955	3,481.93	108.103	3,481.93	103.301	3,481.93	105.917	3,481.93	102.039	3,481.93	97.5788	3,481.93	100.796	3,481.93	92.687	3,481.93	96.6623	3,481.93	92.0956	3,481.93	95.0991	3,481.93	88.4153	3,481.93	90.5349	3,481.93	79.5534	3,481.93	92.696	3,481.93	84.9184	3,481.93	95.5602	3,481.93	92.0865	3,481.93	95.1177	3,481.93	95.9119	3,481.93	94.8931	3,481.93	92.2111	3,481.93	90.9246	3,481.93	93.0869	3,481.93	95.3898
3,604.98	109.979	3,604.98	109.781	3,604.98	110.214	3,604.98	110.758	3,604.98	110.678	3,604.98	111.223	3,604.98	109.807	3,604.98	111.05	3,604.98	109.96	3,604.98	109.648	3,604.98	109.897	3,604.98	105.859	3,604.98	107.728	3,604.98	105.117	3,604.98	103.647	3,604.98	103.266	3,604.98	93.7257	3,604.98	97.7813	3,604.98	99.6695	3,604.98	94.0871	3,604.98	96.3905	3,604.98	93.0281	3,604.98	91.6239	3,604.98	94.1822	3,604.98	90.6628	3,604.98	88.0157	3,604.98	81.8253	3,604.98	95.6466	3,604.98	90.7242	3,604.98	95.0223	3,604.98	96.0006	3,604.98	94.9958	3,604.98	95.9466	3,604.98	84.3708	3,604.98	93.4239	3,604.98	95.0351
3,732.42	109.109	3,732.42	109.345	3,732.42	109.33	3,732.42	111.211	3,732.42	110.094	3,732.42	112.031	3,732.42	109.62	3,732.42	110.405	3,732.42	110.37	3,732.42	108.453	3,732.42	108.961	3,732.42	106.641	3,732.42	105.855	3,732.42	104.659	3,732.42	99.9564	3,732.42	100.82	3,732.42	100.736	3,732.42	98.2211	3,732.42	101.99	3,732.42	96.8537	3,732.42	98.6998	3,732.42	92.9155	3,732.42	96.798	3,732.42	95.9414	3,732.42	96.068	3,732.42	92.601	3,732.42	87.1148	3,732.42	95.1696	3,732.42	93.8172	3,732.42	94.1613	3,732.42	94.2948	3,732.42	96.5807	3,732.42	96.6973	3,732.42	86.3007	3,732.42	94.3159	3,732.42	96.4969
3,864.26	110.182	3,864.26	111.157	3,864.26	110.876	3,864.26	111.685	3,864.26	111.142	3,864.26	111.796	3,864.26	110.807	3,864.26	111.062	3,864.26	111.588	3,864.26	109.596	3,864.26	109.672	3,864.26	107.8	3,864.26	104.608	3,864.26	104.098	3,864.26	96.9394	3,864.26	99.7448	3,864.26	99.7343	3,864.26	98.9467	3,864.26	99.8275	3,864.26	95.6119	3,864.26	97.3362	3,864.26	94.9432	3,864.26	96.8715	3,864.26	95.3602	3,864.26	95.5784	3,864.26	94.2962	3,864.26	89.412	3,864.26	95.015	3,864.26	96.4606	3,864.26	95.2824	3,864.26	94.7709	3,864.26	96.3925	3,864.26	96.5055	3,864.26	91.8291	3,864.26	89.5685	3,864.26	93.1657
4,000.49	110.65	4,000.49	111.824	4,000.49	111.032	4,000.49	112.203	4,000.49	111.363	4,000.49	111.846	4,000.49	111.635	4,000.49	111.214	4,000.49	111.753	4,000.49	110.085	4,000.49	110.181	4,000.49	107.039	4,000.49	106.386	4,000.49	104.278	4,000.49	101.604	4,000.49	104.046	4,000.49	102.653	4,000.49	101.401	4,000.49	99.3114	4,000.49	97.6851	4,000.49	89.4196	4,000.49	93.2469	4,000.49	92.9607	4,000.49	94.1601	4,000.49	94.5477	4,000.49	92.5161	4,000.49	88.2116	4,000.49	96.3237	4,000.49	94.3709	4,000.49	95.9844	4,000.49	94.2327	4,000.49	96.1341	4,000.49	96.1663	4,000.49	92.4045	4,000.49	86.2357	4,000.49	92.3099
4,141.11	112.506	4,141.11	113.41	4,141.11	112.107	4,141.11	114.319	4,141.11	112.364	4,141.11	113.488	4,141.11	113.116	4,141.11	112.686	4,141.11	111.608	4,141.11	110.904	4,141.11	110.207	4,141.11	106.784	4,141.11	106.92	4,141.11	104.994	4,141.11	105.268	4,141.11	102.48	4,141.11	105.223	4,141.11	98.6289	4,141.11	100.202	4,141.11	94.8135	4,141.11	87.5491	4,141.11	93.9459	4,141.11	85.5609	4,141.11	95.0296	4,141.11	92.4711	4,141.11	94.9141	4,141.11	96.5226	4,141.11	94.8472	4,141.11	86.5179	4,141.11	96.8727	4,141.11	94.664	4,141.11	97.4065	4,141.11	95.6854	4,141.11	94.3529	4,141.11	85.8126	4,141.11	93.0945
4,287.6	114.218	4,287.6	114.058	4,287.6	113.202	4,287.6	114.144	4,287.6	112.618	4,287.6	113.906	4,287.6	113.448	4,287.6	112.655	4,287.6	112.761	4,287.6	109.578	4,287.6	110.017	4,287.6	107.188	4,287.6	103.974	4,287.6	104.548	4,287.6	106.929	4,287.6	100.131	4,287.6	105.533	4,287.6	97.8469	4,287.6	99.9281	4,287.6	95.5629	4,287.6	96.692	4,287.6	94.3988	4,287.6	83.6049	4,287.6	94.1418	4,287.6	91.9256	4,287.6	94.0964	4,287.6	96.3214	4,287.6	96.5949	4,287.6	92.8102	4,287.6	96.1127	4,287.6	94.8694	4,287.6	97.2454	4,287.6	95.868	4,287.6	94.2095	4,287.6	87.2454	4,287.6	91.0663
4,438.48	113.958	4,438.48	113.954	4,438.48	113.695	4,438.48	113.594	4,438.48	113.415	4,438.48	112.982	4,438.48	112.661	4,438.48	111.363	4,438.48	112.226	4,438.48	108.885	4,438.48	108.133	4,438.48	107.633	4,438.48	102.056	4,438.48	104.178	4,438.48	107.387	4,438.48	101.01	4,438.48	104.46	4,438.48	99.316	4,438.48	101.679	4,438.48	95.1188	4,438.48	97.4967	4,438.48	93.5674	4,438.48	92.2263	4,438.48	90.6299	4,438.48	92.6677	4,438.48	91.6812	4,438.48	95.7857	4,438.48	94.461	4,438.48	91.7576	4,438.48	97.7198	4,438.48	95.1034	4,438.48	95.8158	4,438.48	93.0176	4,438.48	94.6575	4,438.48	88.4759	4,438.48	88.5311
4,595.21	113.367	4,595.21	112.939	4,595.21	114.209	4,595.21	112.835	4,595.21	114.196	4,595.21	112.398	4,595.21	112.887	4,595.21	110.911	4,595.21	111.992	4,595.21	109	4,595.21	105.362	4,595.21	104.569	4,595.21	107.948	4,595.21	101.311	4,595.21	108.402	4,595.21	103.023	4,595.21	102.74	4,595.21	99.2817	4,595.21	98.8727	4,595.21	91.8309	4,595.21	90.5524	4,595.21	90.7757	4,595.21	93.0562	4,595.21	92.431	4,595.21	94.4049	4,595.21	90.6516	4,595.21	94.1876	4,595.21	91.0972	4,595.21	90.8209	4,595.21	93.7607	4,595.21	90.3908	4,595.21	96.7767	4,595.21	92.2039	4,595.21	94.2084	4,595.21	74.9949	4,595.21	90.5565
4,756.35	112.897	4,756.35	114.011	4,756.35	114.776	4,756.35	114.403	4,756.35	114.641	4,756.35	112.349	4,756.35	112.674	4,756.35	111.194	4,756.35	109.951	4,756.35	108.671	4,756.35	103.875	4,756.35	105.637	4,756.35	108.495	4,756.35	104.548	4,756.35	107.531	4,756.35	99.2824	4,756.35	101.747	4,756.35	96.7819	4,756.35	94.7795	4,756.35	96.7337	4,756.35	70.4908	4,756.35	93.7514	4,756.35	89.1567	4,756.35	94.5419	4,756.35	85.3489	4,756.35	91.9718	4,756.35	93.6214	4,756.35	93.162	4,756.35	92.5769	4,756.35	91.2877	4,756.35	92.653	4,756.35	98.2992	4,756.35	91.3706	4,756.35	94.8624	4,756.35	86.0509	4,756.35	91.4178
4,924.8	114.017	4,924.8	114.669	4,924.8	114.177	4,924.8	114.099	4,924.8	114.037	4,924.8	112.457	4,924.8	112.761	4,924.8	109.88	4,924.8	108.308	4,924.8	106.576	4,924.8	105.001	4,924.8	106.294	4,924.8	108.899	4,924.8	101.298	4,924.8	105.268	4,924.8	102.137	4,924.8	93.84	4,924.8	99.4343	4,924.8	86.2071	4,924.8	95.0609	4,924.8	89.7738	4,924.8	94.3076	4,924.8	77.2993	4,924.8	92.5552	4,924.8	74.4996	4,924.8	90.9352	4,924.8	91.1513	4,924.8	92.9628	4,924.8	93.5145	4,924.8	94.7664	4,924.8	91.2742	4,924.8	97.0909	4,924.8	93.3363	4,924.8	93.0582	4,924.8	83.5156	4,924.8	89.1054
5,097.66	115.23	5,097.66	114.604	5,097.66	114.804	5,097.66	112.922	5,097.66	113.663	5,097.66	111.189	5,097.66	112.537	5,097.66	109.395	5,097.66	108.05	5,097.66	108.497	5,097.66	108.606	5,097.66	105.019	5,097.66	108.667	5,097.66	104.379	5,097.66	100.668	5,097.66	104.161	5,097.66	96.8825	5,097.66	99.0848	5,097.66	96.5359	5,097.66	94.7718	5,097.66	91.5781	5,097.66	93.3137	5,097.66	73.3988	5,097.66	91.4226	5,097.66	80.7494	5,097.66	94.7607	5,097.66	86.6955	5,097.66	94.4635	5,097.66	94.3525	5,097.66	94.6828	5,097.66	85.2768	5,097.66	96.4241	5,097.66	88.5975	5,097.66	91.0782	5,097.66	87.7186	5,097.66	82.9727
5,277.83	113.723	5,277.83	113.956	5,277.83	113.362	5,277.83	112.428	5,277.83	112.791	5,277.83	110.424	5,277.83	111.468	5,277.83	109.189	5,277.83	107.032	5,277.83	106.935	5,277.83	108.602	5,277.83	106.475	5,277.83	106.168	5,277.83	103.89	5,277.83	98.2246	5,277.83	97.444	5,277.83	100.439	5,277.83	97.4624	5,277.83	95.0191	5,277.83	95.5992	5,277.83	87.4006	5,277.83	93.6048	5,277.83	91.3318	5,277.83	91.3458	5,277.83	88.3786	5,277.83	91.4786	5,277.83	77.3342	5,277.83	92.2492	5,277.83	92.3431	5,277.83	91.8015	5,277.83	89.9453	5,277.83	92.8479	5,277.83	86.5953	5,277.83	87.8264	5,277.83	85.4264	5,277.83	77.4421
5,463.87	114.029	5,463.87	113.622	5,463.87	112.857	5,463.87	112.317	5,463.87	112.356	5,463.87	110.923	5,463.87	111.158	5,463.87	108.812	5,463.87	106.18	5,463.87	107.969	5,463.87	108.232	5,463.87	105.363	5,463.87	104.945	5,463.87	102.165	5,463.87	101.366	5,463.87	102.269	5,463.87	99.3207	5,463.87	98.6025	5,463.87	94.2754	5,463.87	92.5758	5,463.87	88.1701	5,463.87	92.1297	5,463.87	96.8823	5,463.87	90.451	5,463.87	89.7848	5,463.87	90.9171	5,463.87	82.1137	5,463.87	92.3798	5,463.87	90.7622	5,463.87	94.8272	5,463.87	92.5111	5,463.87	92.7642	5,463.87	81.7386	5,463.87	87.7448	5,463.87	70.3966	5,463.87	81.5326
5,657.23	114.455	5,657.23	113.762	5,657.23	113.528	5,657.23	112.316	5,657.23	112.224	5,657.23	110.046	5,657.23	110.156	5,657.23	109.145	5,657.23	108.571	5,657.23	108.27	5,657.23	109.317	5,657.23	106.369	5,657.23	104.329	5,657.23	104.694	5,657.23	103.171	5,657.23	100.045	5,657.23	100.454	5,657.23	96.9064	5,657.23	94.7282	5,657.23	93.6054	5,657.23	87.7113	5,657.23	92.4925	5,657.23	97.519	5,657.23	90.9555	5,657.23	85.9773	5,657.23	91.756	5,657.23	82.7266	5,657.23	92.2761	5,657.23	89.4004	5,657.23	93.4381	5,657.23	93.3315	5,657.23	94.0546	5,657.23	87.6611	5,657.23	87.9944	5,657.23	83.7996	5,657.23	72.7881
5,856.45	114.668	5,856.45	113.418	5,856.45	113.963	5,856.45	110.909	5,856.45	112.333	5,856.45	109.526	5,856.45	109.877	5,856.45	109.452	5,856.45	109.028	5,856.45	107.841	5,856.45	107.693	5,856.45	105.467	5,856.45	101.698	5,856.45	100.021	5,856.45	102.694	5,856.45	98.4694	5,856.45	96.1974	5,856.45	97.3631	5,856.45	87.1372	5,856.45	90.3107	5,856.45	79.1098	5,856.45	90.5037	5,856.45	93.4099	5,856.45	85.8466	5,856.45	80.608	5,856.45	89.3972	5,856.45	82.9813	5,856.45	89.5113	5,856.45	80.1327	5,856.45	93.3535	5,856.45	88.2663	5,856.45	91.445	5,856.45	88.335	5,856.45	87.0548	5,856.45	83.5001	5,856.45	68.6637
6,062.99	114.423	6,062.99	113.988	6,062.99	114.136	6,062.99	112.604	6,062.99	112.37	6,062.99	110.554	6,062.99	109.518	6,062.99	108.949	6,062.99	108.955	6,062.99	106.413	6,062.99	106.411	6,062.99	103.567	6,062.99	100.16	6,062.99	101.406	6,062.99	98.4911	6,062.99	97.6081	6,062.99	93.0272	6,062.99	92.5421	6,062.99	76.5671	6,062.99	91.2276	6,062.99	80.2119	6,062.99	88.2834	6,062.99	91.4812	6,062.99	86.2485	6,062.99	88.5621	6,062.99	88.9042	6,062.99	86.6742	6,062.99	88.5855	6,062.99	78.0775	6,062.99	89.6926	6,062.99	85.7445	6,062.99	89.8721	6,062.99	83.1269	6,062.99	87.3638	6,062.99	85.6368	6,062.99	69.3442
6,276.86	114.741	6,276.86	113.746	6,276.86	114.56	6,276.86	112.722	6,276.86	112.634	6,276.86	111.461	6,276.86	109.076	6,276.86	109.481	6,276.86	107.868	6,276.86	106.703	6,276.86	104.854	6,276.86	103.815	6,276.86	98.7685	6,276.86	98.9604	6,276.86	96.3967	6,276.86	96.3557	6,276.86	94.6721	6,276.86	93.8003	6,276.86	89.7981	6,276.86	89.8795	6,276.86	87.8946	6,276.86	87.0928	6,276.86	91.8442	6,276.86	84.5142	6,276.86	88.7566	6,276.86	86.7176	6,276.86	83.7708	6,276.86	91.3421	6,276.86	86.3227	6,276.86	89.3892	6,276.86	88.0137	6,276.86	91.4819	6,276.86	75.1119	6,276.86	82.4512	6,276.86	83.9448	6,276.86	72.8555
6,498.05	114.738	6,498.05	114.127	6,498.05	114.518	6,498.05	112.934	6,498.05	112.474	6,498.05	111.102	6,498.05	109.06	6,498.05	109.048	6,498.05	108.318	6,498.05	106.345	6,498.05	104.418	6,498.05	103.397	6,498.05	101.041	6,498.05	100.811	6,498.05	99.5681	6,498.05	98.1496	6,498.05	100.596	6,498.05	94.124	6,498.05	95.5768	6,498.05	92.3559	6,498.05	86.0319	6,498.05	89.6826	6,498.05	91.4226	6,498.05	87.4538	6,498.05	86.981	6,498.05	88.4506	6,498.05	80.2419	6,498.05	92.8344	6,498.05	68.0239	6,498.05	89.8476	6,498.05	84.531	6,498.05	93.977	6,498.05	82.0157	6,498.05	89.7993	6,498.05	83.3511	6,498.05	83.5294
6,726.56	114.729	6,726.56	114.039	6,726.56	113.743	6,726.56	111.966	6,726.56	111.503	6,726.56	110.196	6,726.56	107.739	6,726.56	108.771	6,726.56	106.765	6,726.56	106.623	6,726.56	102.953	6,726.56	104.203	6,726.56	101.002	6,726.56	101.54	6,726.56	99.3994	6,726.56	98.3465	6,726.56	101.963	6,726.56	96.4785	6,726.56	93.8787	6,726.56	93.8577	6,726.56	85.2289	6,726.56	90.5603	6,726.56	88.3706	6,726.56	88.9256	6,726.56	86.1193	6,726.56	89.8605	6,726.56	81.644	6,726.56	92.9619	6,726.56	80.0986	6,726.56	92.0824	6,726.56	90.1686	6,726.56	92.3893	6,726.56	85.2789	6,726.56	89.6843	6,726.56	89.1882	6,726.56	86.3271
6,963.87	112.826	6,963.87	111.726	6,963.87	111.614	6,963.87	109.185	6,963.87	108.327	6,963.87	108.143	6,963.87	105.708	6,963.87	108.417	6,963.87	107.044	6,963.87	106.797	6,963.87	104.324	6,963.87	105.257	6,963.87	101.07	6,963.87	103.516	6,963.87	104.864	6,963.87	99.9523	6,963.87	104.018	6,963.87	96.6219	6,963.87	89.8513	6,963.87	94.7183	6,963.87	90.5454	6,963.87	91.4276	6,963.87	90.317	6,963.87	89.7089	6,963.87	80.3934	6,963.87	88.1778	6,963.87	78.1309	6,963.87	94.2189	6,963.87	65.1075	6,963.87	88.9254	6,963.87	84.5099	6,963.87	92.8128	6,963.87	83.8122	6,963.87	84.0231	6,963.87	89.8174	6,963.87	85.8535
7,209.96	110.036	7,209.96	108.512	7,209.96	108.267	7,209.96	106.621	7,209.96	101.972	7,209.96	106.655	7,209.96	106.621	7,209.96	107.517	7,209.96	107.847	7,209.96	106.949	7,209.96	106.507	7,209.96	106.256	7,209.96	104.055	7,209.96	103.724	7,209.96	105.831	7,209.96	100.366	7,209.96	101.144	7,209.96	96.2302	7,209.96	83.9804	7,209.96	93.664	7,209.96	95.5787	7,209.96	91.619	7,209.96	91.3839	7,209.96	88.146	7,209.96	65.0259	7,209.96	86.4513	7,209.96	82.4078	7,209.96	93.7666	7,209.96	74.1178	7,209.96	87.4794	7,209.96	89.4099	7,209.96	91.5563	7,209.96	85.9438	7,209.96	88.677	7,209.96	82.0934	7,209.96	86.309
7,464.84	106.711	7,464.84	106.607	7,464.84	105.555	7,464.84	107.135	7,464.84	105.721	7,464.84	106.209	7,464.84	107.264	7,464.84	107.078	7,464.84	106.864	7,464.84	107.32	7,464.84	105.355	7,464.84	106.092	7,464.84	105.252	7,464.84	103.815	7,464.84	103.992	7,464.84	100.528	7,464.84	91.0881	7,464.84	96.6174	7,464.84	96.2145	7,464.84	91.8261	7,464.84	96.224	7,464.84	88.9842	7,464.84	89.5993	7,464.84	89.1549	7,464.84	84.4435	7,464.84	82.4239	7,464.84	86.3632	7,464.84	89.6739	7,464.84	81.4672	7,464.84	76.9087	7,464.84	87.9148	7,464.84	74.7768	7,464.84	82.1589	7,464.84	73.1454	7,464.84	82.5441	7,464.84	85.6106
7,727.05	105.689	7,727.05	105.789	7,727.05	105.449	7,727.05	106.768	7,727.05	106.899	7,727.05	106.548	7,727.05	106.57	7,727.05	106.88	7,727.05	104.831	7,727.05	106.738	7,727.05	101.827	7,727.05	105.182	7,727.05	103.706	7,727.05	101.84	7,727.05	100.309	7,727.05	96.9698	7,727.05	95.5403	7,727.05	92.9477	7,727.05	93.2635	7,727.05	90.8621	7,727.05	91.1143	7,727.05	83.7246	7,727.05	80.9217	7,727.05	86.0291	7,727.05	89.9486	7,727.05	76.828	7,727.05	71.4496	7,727.05	85.5894	7,727.05	80.1122	7,727.05	82.6262	7,727.05	81.4589	7,727.05	84.1396	7,727.05	73.3079	7,727.05	87.287	7,727.05	76.2333	7,727.05	82.1057
7,999.51	105.787	7,999.51	106.657	7,999.51	106.331	7,999.51	106.832	7,999.51	106.953	7,999.51	105.172	7,999.51	105.385	7,999.51	105.385	7,999.51	101.537	7,999.51	105.557	7,999.51	101.088	7,999.51	102.507	7,999.51	102.719	7,999.51	99.0167	7,999.51	96.1624	7,999.51	94.8248	7,999.51	90.845	7,999.51	87.7926	7,999.51	89.2967	7,999.51	85.2612	7,999.51	82.9387	7,999.51	86.6993	7,999.51	75.1266	7,999.51	87.753	7,999.51	85.9425	7,999.51	86.0881	7,999.51	84.6485	7,999.51	84.2054	7,999.51	84.176	7,999.51	89.2534	7,999.51	84.3421	7,999.51	88.5473	7,999.51	77.8867	7,999.51	86.4055	7,999.51	79.9086	7,999.51	82.3779
8,282.23	105.235	8,282.23	105.992	8,282.23	105.172	8,282.23	106.025	8,282.23	104.643	8,282.23	103.893	8,282.23	103.6	8,282.23	104.374	8,282.23	99.6689	8,282.23	103.717	8,282.23	101.258	8,282.23	100.023	8,282.23	98.5179	8,282.23	96.97	8,282.23	91.8598	8,282.23	90.466	8,282.23	91.9162	8,282.23	89.6001	8,282.23	86.2801	8,282.23	86.4013	8,282.23	83.5066	8,282.23	87.5916	8,282.23	70.7304	8,282.23	87.7269	8,282.23	86.2651	8,282.23	88.6151	8,282.23	82.8122	8,282.23	84.1263	8,282.23	87.5847	8,282.23	90.3561	8,282.23	86.4705	8,282.23	88.6398	8,282.23	80.9373	8,282.23	89.0154	8,282.23	85.16	8,282.23	85.0562
8,573.73	106.077	8,573.73	104.325	8,573.73	104.584	8,573.73	103.656	8,573.73	102.131	8,573.73	102.187	8,573.73	99.9345	8,573.73	102.642	8,573.73	97.552	8,573.73	102.073	8,573.73	99.7649	8,573.73	98.0812	8,573.73	91.1707	8,573.73	94.3865	8,573.73	91.9123	8,573.73	89.9618	8,573.73	89.4314	8,573.73	85.0722	8,573.73	80.5206	8,573.73	82.9138	8,573.73	81.3139	8,573.73	85.9442	8,573.73	72.1231	8,573.73	82.1934	8,573.73	83.79	8,573.73	88.6662	8,573.73	86.7287	8,573.73	84.7286	8,573.73	86.3598	8,573.73	90.9708	8,573.73	85.7068	8,573.73	89.3551	8,573.73	86.8089	8,573.73	91.1445	8,573.73	80.6486	8,573.73	88.2226
8,876.95	106.409	8,876.95	102.487	8,876.95	104.444	8,876.95	102.653	8,876.95	100.891	8,876.95	100.539	8,876.95	97.3577	8,876.95	100.915	8,876.95	97.7717	8,876.95	100.747	8,876.95	96.8499	8,876.95	94.5712	8,876.95	86.6416	8,876.95	90.6145	8,876.95	91.3295	8,876.95	86.3865	8,876.95	82.7265	8,876.95	83.25	8,876.95	80.9269	8,876.95	82.813	8,876.95	85.379	8,876.95	85.8533	8,876.95	85.0506	8,876.95	81.4053	8,876.95	82.6092	8,876.95	86.9591	8,876.95	85.2808	8,876.95	87.4645	8,876.95	88.838	8,876.95	89.9765	8,876.95	89.2717	8,876.95	92.4251	8,876.95	89.0679	8,876.95	92.765	8,876.95	82.8677	8,876.95	91.1969
9,188.96	105.593	9,188.96	99.0009	9,188.96	103.111	9,188.96	98.2441	9,188.96	99.89	9,188.96	95.5244	9,188.96	94.8689	9,188.96	96.4703	9,188.96	95.4642	9,188.96	97.3384	9,188.96	90.8776	9,188.96	91.5025	9,188.96	92.2027	9,188.96	89.2383	9,188.96	91.6496	9,188.96	84.1074	9,188.96	83.3059	9,188.96	80.1601	9,188.96	82.3841	9,188.96	81.2691	9,188.96	82.3039	9,188.96	85.336	9,188.96	83.9203	9,188.96	79.5062	9,188.96	69.2376	9,188.96	84.698	9,188.96	80.5819	9,188.96	88.2128	9,188.96	86.7324	9,188.96	89.52	9,188.96	90.3049	9,188.96	92.5279	9,188.96	90.2112	9,188.96	93.0614	9,188.96	87.4001	9,188.96	92.2961
9,514.16	104.356	9,514.16	94.3138	9,514.16	99.4809	9,514.16	95.9368	9,514.16	98.214	9,514.16	91.4282	9,514.16	92.8818	9,514.16	89.8338	9,514.16	91.4679	9,514.16	93.7707	9,514.16	77.1259	9,514.16	83.4217	9,514.16	86.1392	9,514.16	82.2806	9,514.16	87.4077	9,514.16	78.9312	9,514.16	88.4489	9,514.16	73.0517	9,514.16	84.2269	9,514.16	79.3265	9,514.16	78.7541	9,514.16	83.4187	9,514.16	79.551	9,514.16	76.7265	9,514.16	74.101	9,514.16	81.6132	9,514.16	79.359	9,514.16	88.111	9,514.16	86.7676	9,514.16	89.0783	9,514.16	90.5121	9,514.16	90.2878	9,514.16	90.0281	9,514.16	92.1223	9,514.16	85.4088	9,514.16	92.6849
9,849.61	104.057	9,849.61	94.982	9,849.61	96.8633	9,849.61	96.5366	9,849.61	97.5357	9,849.61	92.499	9,849.61	90.4994	9,849.61	86.2478	9,849.61	90.6969	9,849.61	94.8497	9,849.61	84.5375	9,849.61	88.5105	9,849.61	91.488	9,849.61	87.9952	9,849.61	86.3061	9,849.61	83.1719	9,849.61	92.3927	9,849.61	72.6785	9,849.61	87.4263	9,849.61	84.4348	9,849.61	85.285	9,849.61	88.1138	9,849.61	85.8585	9,849.61	83.2957	9,849.61	76.0358	9,849.61	87.1354	9,849.61	76.8657	9,849.61	89.5902	9,849.61	87.241	9,849.61	90.0888	9,849.61	92.1524	9,849.61	90.0942	9,849.61	90.2518	9,849.61	90.9422	9,849.61	85.4436	9,849.61	92.842
10,196.8	102.462	10,196.8	94.617	10,196.8	96.5595	10,196.8	95.6375	10,196.8	92.9137	10,196.8	93.9242	10,196.8	82.4168	10,196.8	89.2937	10,196.8	84.0389	10,196.8	95.7265	10,196.8	85.1373	10,196.8	90.5979	10,196.8	91.6282	10,196.8	90.1533	10,196.8	86.6027	10,196.8	79.4331	10,196.8	96.2271	10,196.8	78.7841	10,196.8	89.8205	10,196.8	87.8164	10,196.8	79.8126	10,196.8	90.6624	10,196.8	84.6135	10,196.8	83.3336	10,196.8	78.5428	10,196.8	88.7767	10,196.8	73.8537	10,196.8	88.1741	10,196.8	88.3983	10,196.8	91.8834	10,196.8	90.8991	10,196.8	88.0508	10,196.8	85.673	10,196.8	90.6225	10,196.8	85.0546	10,196.8	90.3858
10,555.7	101.571	10,555.7	88.9387	10,555.7	97.8339	10,555.7	89.9156	10,555.7	90.4703	10,555.7	97.2218	10,555.7	86.9398	10,555.7	88.7691	10,555.7	85.036	10,555.7	94.5434	10,555.7	89.3304	10,555.7	87.9396	10,555.7	94.3015	10,555.7	89.6386	10,555.7	86.2313	10,555.7	80.4614	10,555.7	96.7649	10,555.7	76.4563	10,555.7	91.0341	10,555.7	85.2732	10,555.7	79.0237	10,555.7	88.2115	10,555.7	80.9621	10,555.7	80.487	10,555.7	76.1888	10,555.7	84.9892	10,555.7	70.1092	10,555.7	84.4369	10,555.7	84.9641	10,555.7	89.5197	10,555.7	87.4701	10,555.7	85.5073	10,555.7	78.4429	10,555.7	89.4371	10,555.7	83.9391	10,555.7	87.8038
10,927.7	101.677	10,927.7	92.0705	10,927.7	96.2084	10,927.7	95.6119	10,927.7	96.5323	10,927.7	98.765	10,927.7	89.5599	10,927.7	90.2941	10,927.7	86.6976	10,927.7	92.7695	10,927.7	87.7467	10,927.7	86.8904	10,927.7	94.4453	10,927.7	87.555	10,927.7	86.8252	10,927.7	77.6791	10,927.7	94.2219	10,927.7	77.321	10,927.7	84.7941	10,927.7	83.5164	10,927.7	79.0408	10,927.7	82.4699	10,927.7	73.9607	10,927.7	76.4205	10,927.7	75.7011	10,927.7	80.8299	10,927.7	72.9513	10,927.7	76.4216	10,927.7	81.9752	10,927.7	84.1996	10,927.7	80.677	10,927.7	79.6329	10,927.7	68.4365	10,927.7	86.7298	10,927.7	83.0495	10,927.7	85.0484
11,313	101.92	11,313	97.2554	11,313	97.4981	11,313	96.8397	11,313	97.2106	11,313	99.3352	11,313	86.7854	11,313	93.4485	11,313	88.1844	11,313	90.7391	11,313	86.8451	11,313	85.0434	11,313	91.9271	11,313	85.3332	11,313	84.7505	11,313	82.0449	11,313	88.8446	11,313	79.0884	11,313	83.4382	11,313	83.7728	11,313	80.5165	11,313	79.9202	11,313	70.6969	11,313	69.7714	11,313	60.2859	11,313	73.0932	11,313	73.8272	11,313	69.381	11,313	77.6553	11,313	73.5712	11,313	66.4139	11,313	77.9561	11,313	69.4349	11,313	80.1527	11,313	77.9304	11,313	80.4451
11,712.9	103.19	11,712.9	96.6845	11,712.9	98.0445	11,712.9	98.5497	11,712.9	97.9609	11,712.9	98.3851	11,712.9	87.5175	11,712.9	94.112	11,712.9	88.1023	11,712.9	88.0821	11,712.9	87.025	11,712.9	82.4401	11,712.9	90.668	11,712.9	81.6955	11,712.9	83.9548	11,712.9	78.563	11,712.9	86.4863	11,712.9	78.3629	11,712.9	81.2567	11,712.9	83.6604	11,712.9	75.1132	11,712.9	76.1067	11,712.9	73.8987	11,712.9	65.9944	11,712.9	71.5102	11,712.9	75.0519	11,712.9	76.9675	11,712.9	74.6129	11,712.9	71.9869	11,712.9	76.9903	11,712.9	68.1803	11,712.9	78.2819	11,712.9	69.1028	11,712.9	74.1874	11,712.9	68.4568	11,712.9	79.2633
12,126	103.375	12,126	99.6893	12,126	95.9584	12,126	101.227	12,126	99.7374	12,126	96.8557	12,126	86.9045	12,126	95.0108	12,126	84.7429	12,126	87.3861	12,126	85.0293	12,126	79.9935	12,126	88.7684	12,126	77.2528	12,126	77.4618	12,126	80.5574	12,126	83.4189	12,126	81.3976	12,126	81.1594	12,126	80.6168	12,126	74.4296	12,126	75.1342	12,126	63.9069	12,126	62.6182	12,126	78.7865	12,126	78.5996	12,126	80.8442	12,126	78.9493	12,126	76.1226	12,126	84.0404	12,126	81.1894	12,126	79.3681	12,126	79.4653	12,126	79.0151	12,126	65.8971	12,126	83.9321
12,553.7	104.256	12,553.7	100.754	12,553.7	95.3352	12,553.7	104.583	12,553.7	102.718	12,553.7	92.2619	12,553.7	93.1036	12,553.7	95.509	12,553.7	86.8196	12,553.7	86.5782	12,553.7	86.536	12,553.7	77.4367	12,553.7	81.246	12,553.7	84.6723	12,553.7	83.6758	12,553.7	82.4721	12,553.7	90.1368	12,553.7	85.7419	12,553.7	86.1114	12,553.7	83.7374	12,553.7	74.4465	12,553.7	79.5425	12,553.7	73.3737	12,553.7	66.088	12,553.7	83.3796	12,553.7	80.3891	12,553.7	79.736	12,553.7	79.4986	12,553.7	78.5131	12,553.7	85.9829	12,553.7	85.1701	12,553.7	82.0899	12,553.7	84.3855	12,553.7	82.4623	12,553.7	65.006	12,553.7	85.7097
12,996.1	106.143	12,996.1	102.989	12,996.1	94.8948	12,996.1	107.961	12,996.1	104.885	12,996.1	74.252	12,996.1	98.9908	12,996.1	95.7046	12,996.1	92.8135	12,996.1	83.4837	12,996.1	88.7709	12,996.1	88.9499	12,996.1	85.4374	12,996.1	92.5251	12,996.1	83.4846	12,996.1	82.7999	12,996.1	95.9604	12,996.1	89.9626	12,996.1	91.9826	12,996.1	88.6442	12,996.1	79.9662	12,996.1	85.7453	12,996.1	85.5361	12,996.1	78.499	12,996.1	86.061	12,996.1	84.7113	12,996.1	79.2157	12,996.1	81.3531	12,996.1	83.6618	12,996.1	86.7859	12,996.1	90.1168	12,996.1	81.1716	12,996.1	86.6326	12,996.1	87.0631	12,996.1	80.248	12,996.1	85.5245
13,454.6	107.124	13,454.6	106.125	13,454.6	97.3065	13,454.6	111.488	13,454.6	106.862	13,454.6	84.2825	13,454.6	103.894	13,454.6	95.4532	13,454.6	89.8419	13,454.6	91.5972	13,454.6	87.2418	13,454.6	92.7357	13,454.6	96.3619	13,454.6	96.7689	13,454.6	79.6429	13,454.6	83.4297	13,454.6	93.1502	13,454.6	89.1691	13,454.6	95.7794	13,454.6	91.77	13,454.6	89.0371	13,454.6	89.4518	13,454.6	92.0507	13,454.6	80.8604	13,454.6	89.9378	13,454.6	89.1667	13,454.6	85.4721	13,454.6	81.1714	13,454.6	84.6219	13,454.6	86.0008	13,454.6	92.044	13,454.6	89.5359	13,454.6	88.9567	13,454.6	90.5389	13,454.6	91.5508	13,454.6	85.602
13,929.2	108.012	13,929.2	108.252	13,929.2	98.1568	13,929.2	113.773	13,929.2	110.344	13,929.2	82.9861	13,929.2	105.649	13,929.2	96.3714	13,929.2	89.4787	13,929.2	94.7077	13,929.2	94.4981	13,929.2	95.2945	13,929.2	100.015	13,929.2	98.9185	13,929.2	87.8931	13,929.2	81.0579	13,929.2	93.7773	13,929.2	85.2364	13,929.2	97.4245	13,929.2	92.0323	13,929.2	90.8695	13,929.2	90.879	13,929.2	96.6567	13,929.2	74.9415	13,929.2	92.0383	13,929.2	93.1528	13,929.2	74.3191	13,929.2	77.4677	13,929.2	87.4603	13,929.2	82.8745	13,929.2	92.7198	13,929.2	87.7218	13,929.2	86.8447	13,929.2	88.7304	13,929.2	95.8854	13,929.2	84.2832
14,419.9	108.168	14,419.9	109.967	14,419.9	100.344	14,419.9	115.245	14,419.9	111.783	14,419.9	98.2973	14,419.9	104.997	14,419.9	95.9766	14,419.9	98.412	14,419.9	95.7045	14,419.9	95.017	14,419.9	97.4796	14,419.9	98.7961	14,419.9	100.235	14,419.9	90.2359	14,419.9	82.2471	14,419.9	95.5111	14,419.9	87.049	14,419.9	97.1625	14,419.9	91.4707	14,419.9	88.4003	14,419.9	90.7041	14,419.9	98.2114	14,419.9	76.1181	14,419.9	93.3088	14,419.9	90.6735	14,419.9	77.0785	14,419.9	75.1183	14,419.9	88.694	14,419.9	76.4321	14,419.9	89.662	14,419.9	80.126	14,419.9	88.2558	14,419.9	83.5175	14,419.9	96.4028	14,419.9	82.3358
14,928.2	108.464	14,928.2	113.592	14,928.2	99.7196	14,928.2	117.156	14,928.2	113.132	14,928.2	100.613	14,928.2	107.535	14,928.2	96.8171	14,928.2	102.912	14,928.2	95.5472	14,928.2	88.0982	14,928.2	97.9996	14,928.2	90.1149	14,928.2	99.1834	14,928.2	97.1537	14,928.2	86.0089	14,928.2	94.9336	14,928.2	86.4287	14,928.2	93.7055	14,928.2	89.4584	14,928.2	87.1311	14,928.2	84.0604	14,928.2	98.5264	14,928.2	81.4597	14,928.2	95.174	14,928.2	83.0481	14,928.2	80.3721	14,928.2	82.3096	14,928.2	89.3055	14,928.2	87.4642	14,928.2	90.6161	14,928.2	84.1827	14,928.2	89.1727	14,928.2	76.1216	14,928.2	97.4144	14,928.2	87.8291
15,455.6	107.924	15,455.6	114.651	15,455.6	93.1546	15,455.6	117.379	15,455.6	113.866	15,455.6	98.7535	15,455.6	107.567	15,455.6	97.4716	15,455.6	104.978	15,455.6	92.8903	15,455.6	92.2317	15,455.6	94.9988	15,455.6	80.1444	15,455.6	92.9603	15,455.6	97.8236	15,455.6	84.552	15,455.6	93.3911	15,455.6	86.7781	15,455.6	89.4152	15,455.6	75.0359	15,455.6	89.1436	15,455.6	84.6981	15,455.6	96.9432	15,455.6	69.1361	15,455.6	92.4551	15,455.6	82.0268	15,455.6	85.4938	15,455.6	86.7143	15,455.6	82.6682	15,455.6	89.1937	15,455.6	92.7016	15,455.6	82.9395	15,455.6	88.0797	15,455.6	85.2463	15,455.6	95.5245	15,455.6	90.0665
16,000.5	104.446	16,000.5	113.832	16,000.5	92.8637	16,000.5	115.551	16,000.5	111.674	16,000.5	96.1094	16,000.5	102.98	16,000.5	97.8853	16,000.5	103.687	16,000.5	93.082	16,000.5	94.8031	16,000.5	95.3567	16,000.5	84.2179	16,000.5	94.4149	16,000.5	94.3784	16,000.5	89.4033	16,000.5	93.5779	16,000.5	87.8084	16,000.5	91.1494	16,000.5	86.8201	16,000.5	93.1377	16,000.5	83.3199	16,000.5	96.9438	16,000.5	78.2837	16,000.5	92.7026	16,000.5	82.3418	16,000.5	83.1171	16,000.5	85.866	16,000.5	81.484	16,000.5	86.0446	16,000.5	89.9157	16,000.5	88.2458	16,000.5	84.0951	16,000.5	85.8367	16,000.5	91.1246	16,000.5	90.9963
16,564.5	99.5667	16,564.5	108.056	16,564.5	94.9458	16,564.5	107.167	16,564.5	105.418	16,564.5	95.7541	16,564.5	97.3614	16,564.5	94.011	16,564.5	100.121	16,564.5	90.4113	16,564.5	94.9894	16,564.5	91.1177	16,564.5	89.2675	16,564.5	90.0495	16,564.5	94.1198	16,564.5	88.0514	16,564.5	92.9313	16,564.5	83.2728	16,564.5	90.8877	16,564.5	87.422	16,564.5	90.2207	16,564.5	76.1776	16,564.5	95.2196	16,564.5	76.95	16,564.5	87.952	16,564.5	81.1312	16,564.5	76.1108	16,564.5	88.3508	16,564.5	71.6882	16,564.5	85.2817	16,564.5	82.8983	16,564.5	90.1053	16,564.5	79.0905	16,564.5	77.182	16,564.5	86.8911	16,564.5	83.1246
17,148.9	92.1577	17,148.9	95.3845	17,148.9	89.6647	17,148.9	89.8493	17,148.9	100.225	17,148.9	97.4319	17,148.9	94.9731	17,148.9	83.8453	17,148.9	96.6486	17,148.9	79.5623	17,148.9	89.9087	17,148.9	81.2013	17,148.9	90.8674	17,148.9	84.5393	17,148.9	90.1098	17,148.9	75.8647	17,148.9	92.8658	17,148.9	74.2946	17,148.9	87.8119	17,148.9	80.5747	17,148.9	82.7721	17,148.9	76.0125	17,148.9	90.0572	17,148.9	72.8183	17,148.9	80.9541	17,148.9	78.0009	17,148.9	79.1709	17,148.9	83.5961	17,148.9	59.6489	17,148.9	83.8246	17,148.9	80.6511	17,148.9	86.6575	17,148.9	85.4667	17,148.9	77.1606	17,148.9	82.3757	17,148.9	73.5203
17,752.4	85.2928	17,752.4	93.0794	17,752.4	85.8569	17,752.4	99.8339	17,752.4	93.542	17,752.4	96.9224	17,752.4	92.4357	17,752.4	86.0682	17,752.4	93.1623	17,752.4	79.8334	17,752.4	81.4427	17,752.4	85.4449	17,752.4	87.1602	17,752.4	78.1742	17,752.4	89.032	17,752.4	68.7474	17,752.4	84.7403	17,752.4	68.3598	17,752.4	85.4241	17,752.4	77.2383	17,752.4	68.7492	17,752.4	69.5033	17,752.4	79.9653	17,752.4	73.4045	17,752.4	63.2169	17,752.4	74.7455	17,752.4	71.8031	17,752.4	76.8923	17,752.4	70.1819	17,752.4	80.7533	17,752.4	79.2507	17,752.4	81.799	17,752.4	84.1988	17,752.4	76.3063	17,752.4	75.5223	17,752.4	69.7033
18,379.4	68.696	18,379.4	96.8458	18,379.4	86.8603	18,379.4	99.665	18,379.4	89.0706	18,379.4	94.4591	18,379.4	86.9527	18,379.4	86.7419	18,379.4	85.438	18,379.4	79.8928	18,379.4	85.6138	18,379.4	84.031	18,379.4	86.4407	18,379.4	74.0107	18,379.4	87.0433	18,379.4	72.6868	18,379.4	81.7917	18,379.4	44.4217	18,379.4	80.7195	18,379.4	73.8569	18,379.4	77.567	18,379.4	59.6145	18,379.4	74.3658	18,379.4	70.46	18,379.4	61.6148	18,379.4	74.1841	18,379.4	65.0037	18,379.4	68.1547	18,379.4	65.2657	18,379.4	76.7498	18,379.4	72.6143	18,379.4	74.7603	18,379.4	78.9997	18,379.4	74.6022	18,379.4	68.558	18,379.4	70.1379
19,026.9	74.9738	19,026.9	100.596	19,026.9	87.4383	19,026.9	101.808	19,026.9	87.8143	19,026.9	95.6301	19,026.9	88.276	19,026.9	89.9011	19,026.9	83.2529	19,026.9	81.1028	19,026.9	82.5056	19,026.9	83.6351	19,026.9	85.985	19,026.9	73.7158	19,026.9	85.0103	19,026.9	74.2543	19,026.9	78.7536	19,026.9	67.3594	19,026.9	80.8569	19,026.9	74.8262	19,026.9	75.8476	19,026.9	66.3822	19,026.9	77.0041	19,026.9	68.5218	19,026.9	58.7688	19,026.9	75.7629	19,026.9	75.2842	19,026.9	70.4435	19,026.9	69.2395	19,026.9	77.6608	19,026.9	72.2558	19,026.9	72.5557	19,026.9	76.9648	19,026.9	74.9266	19,026.9	73.1465	19,026.9	70.4792
19,697.8	90.6298	19,697.8	104.932	19,697.8	97.51	19,697.8	104.609	19,697.8	96.1531	19,697.8	97.5434	19,697.8	90.9645	19,697.8	92.2538	19,697.8	88.4683	19,697.8	85.6721	19,697.8	85.7623	19,697.8	82.2409	19,697.8	87.8514	19,697.8	66.2451	19,697.8	83.9564	19,697.8	76.7747	19,697.8	81.9226	19,697.8	73.9611	19,697.8	79.4505	19,697.8	78.1263	19,697.8	80.3488	19,697.8	65.5305	19,697.8	84.7194	19,697.8	76.1199	19,697.8	76.6862	19,697.8	79.8784	19,697.8	74.9226	19,697.8	74.938	19,697.8	66.0632	19,697.8	80.3356	19,697.8	74.4498	19,697.8	76.9822	19,697.8	79.8096	19,697.8	80.6592	19,697.8	77.5606	19,697.8	69.1681
19,999.5	92.7044	19,999.5	105.435	19,999.5	99.9983	19,999.5	104.791	19,999.5	96.6437	19,999.5	97.5934	19,999.5	92.8719	19,999.5	92.6263	19,999.5	90.3686	19,999.5	86.6554	19,999.5	83.7926	19,999.5	80.2165	19,999.5	86.94	19,999.5	77.0109	19,999.5	81.0599	19,999.5	82.4119	19,999.5	81.8071	19,999.5	80.131	19,999.5	76.0226	19,999.5	74.6391	19,999.5	85.6056	19,999.5	72.7656	19,999.5	88.263	19,999.5	77.7506	19,999.5	80.2145	19,999.5	80.8045	19,999.5	72.4505	19,999.5	76.1747	19,999.5	75.7069	19,999.5	81.6981	19,999.5	75.708	19,999.5	80.5225	19,999.5	80.1844	19,999.5	83.9393	19,999.5	75.6115	19,999.5	73.6065
